Results for:	
File:	C:\Users\User\OneDrive - Massachusetts Institute of Technology\Documents\MIT\Grad School\Classes\2.156\Lens Project\Prime Lenses\US08934179-4.zmx
Title:	
Date:	11/7/2025 5:51:07 PM

0 message(s) in output.
3 series table(s) in output.

Table series: Data for wavelength : 0.486133 µm.
   Y Angle (deg)       Tan Shift       Sag Shift     Real Height     Ref. Height      Distortion
  --------------  --------------  --------------  --------------  --------------  --------------
      0.00000000     0.012797630     0.012797630      0.00000000      0.00000000      0.00000000
      0.34000000     0.012807382     0.012787835     0.023619758     0.023619603  6.5740498E-004
      0.68000000     0.012833103     0.012758580     0.047242114     0.047240870  2.6323590E-003
       1.0200000     0.012875764     0.012710248     0.070869669     0.070865464  5.9329909E-003
       1.3600000     0.012936943     0.012643476     0.094505042     0.094495051     0.010572617
       1.7000000     0.013018748     0.012559136      0.11815087      0.11813130     0.016569390
       2.0400000     0.013123727     0.012458324      0.14180982      0.14177587     0.023945810
       2.3800000     0.013254750     0.012342341      0.16548458      0.16543044     0.032728101
       2.7200000     0.013414862     0.012212668      0.18917789      0.18909668     0.042945456
       3.0600000     0.013607130     0.012070942      0.21289251      0.21277627     0.054629151
       3.4000000     0.013834465     0.011918924      0.23663125      0.23647089     0.067811539
       3.7400000     0.014099435     0.011758470      0.26039694      0.26018222     0.082524925
       4.0800000     0.014404070     0.011591496      0.28419247      0.28391196     0.098800330
       4.4200000     0.014749661     0.011419942      0.30802073      0.30766179      0.11666615
       4.7600000     0.015136567     0.011245737      0.33188466      0.33143342      0.13614675
       5.1000000     0.015564015     0.011070759      0.35578719      0.35522856      0.15726091
       5.4400000     0.016029925     0.010896804      0.37973127      0.37904891      0.18002029
       5.7800000     0.016530743     0.010725541      0.40371983      0.40289620      0.20442780
       6.1200000     0.017061300     0.010558488      0.42775576      0.42677215      0.23047594
       6.4600000     0.017614698     0.010396971      0.45184192      0.45067851      0.25814510
       6.8000000     0.018182237     0.010242098      0.47598108      0.47461702      0.28740195
       7.1400000     0.018753372     0.010094736      0.50017593      0.49858943      0.31819780
       7.4800000     0.019315736  9.9554803E-003      0.52442904      0.52259751      0.35046703
       7.8200000     0.019855200  9.8246455E-003      0.54874282      0.54664302      0.38412569
       8.1600000     0.020356006  9.7022486E-003      0.57311952      0.57072777      0.41907012
       8.5000000     0.020800962  9.5880034E-003      0.59756116      0.59485353      0.45517588
       8.8400000     0.021171707  9.4813208E-003      0.62206955      0.61902213      0.49229677
       9.1800000     0.021449049  9.3813142E-003      0.64664622      0.64323537      0.53026426
       9.5200000     0.021613378  9.2868128E-003      0.67129240      0.66749511      0.56888708
       9.8600000     0.021645148  9.1963816E-003      0.69600900      0.69180317      0.60795131
       10.200000     0.021525422  9.1083477E-003      0.72079658      0.71616144      0.64722083
       10.540000     0.021236480  9.0208342E-003      0.74565534      0.74057177      0.68643819
       10.880000     0.020762460  8.9317994E-003      0.77058507      0.76503607      0.72532613
       11.220000     0.020090030  8.8390822E-003      0.79558520      0.78955623      0.76358949
       11.560000     0.019209054  8.7404518E-003      0.82065474      0.81413420      0.80091787
       11.900000     0.018113244  8.6336618E-003      0.84579233      0.83877190      0.83698881
       12.240000     0.016800748  8.5165058E-003      0.87099621      0.86347130      0.87147164
       12.580000     0.015274654  8.3868743E-003      0.89626430      0.88823438      0.90403192
       12.920000     0.013543384  8.2428108E-003      0.92159421      0.91306312      0.93433650
       13.260000     0.011620939  8.0825652E-003      0.94698329      0.93795956      0.96205913
       13.600000  9.5269723E-003  7.9046428E-003      0.97242872      0.96292573      0.98688647
       13.940000  7.2866825E-003  7.7078467E-003      0.99792754      0.98796369       1.0085244
       14.280000  4.9305029E-003  7.4913131E-003       1.0234768       1.0130755       1.0267049
       14.620000  2.4936009E-003  7.2545363E-003       1.0490736       1.0382633       1.0411920
       14.960000  1.5192503E-005  6.9973844E-003       1.0747153       1.0635292       1.0517888
       15.300000 -2.4623038E-003  6.7201029E-003       1.1003994       1.0888753       1.0583432
       15.640000 -4.8942413E-003  6.4233084E-003       1.1261239       1.1143039       1.0607532
       15.980000 -7.2348074E-003  6.1079714E-003       1.1518875       1.1398171       1.0589713
       16.320000 -9.4381286E-003  5.7753899E-003       1.1776891       1.1654172       1.0530082
       16.660000    -0.011459374  5.4271556E-003       1.2035288       1.1911064       1.0429341
       17.000000    -0.013255808  5.0651147E-003       1.2294073       1.2168870       1.0288802
       17.340000    -0.014787761  4.6913264E-003       1.2553260       1.2427613       1.0110366
       17.680000    -0.016019478  4.3080212E-003       1.2812876       1.2687316      0.98965057
       18.020000    -0.016919830  3.9175619E-003       1.3072955       1.2948004      0.96502178
       18.360000    -0.017462880  3.5224098E-003       1.3333541       1.3209701      0.93749663
       18.700000    -0.017628300  3.1250985E-003       1.3594687       1.3472430      0.90746127
       19.040000    -0.017401662  2.7282145E-003       1.3856454       1.3736217      0.87533343
       19.380000    -0.016774619  2.3343877E-003       1.4118913       1.4001086      0.84155353
       19.720000    -0.015745004  1.9462888E-003       1.4382138       1.4267063      0.80657539
       20.060000    -0.014316898  1.5666332E-003       1.4646213       1.4534175      0.77085672
       20.400000    -0.012500676  1.1981886E-003       1.4911222       1.4802447      0.73485003
       20.740000    -0.010313095  8.4378304E-004       1.5177256       1.5071905      0.69899389
       21.080000 -7.7774246E-003  5.0631002E-004       1.5444406       1.5342577      0.66370513
       21.420000 -4.9236495E-003  1.8872696E-004       1.5712763       1.5614490      0.62937194
       21.760000 -1.7887510E-003 -1.0595701E-004       1.5982418       1.5887672      0.59634812
       22.100000  1.5829542E-003 -3.7470651E-004       1.6253459       1.6162151      0.56494848
       22.440000  5.1394421E-003 -6.1450130E-004       1.6525973       1.6437957      0.53544542
       22.780000  8.8206289E-003 -8.2239442E-004       1.6800041       1.6715117      0.50806652
       23.120000     0.012558109 -9.9558713E-004       1.7075741       1.6993663      0.48299318
       23.460000     0.016275070 -1.1315186E-003       1.7353144       1.7273623      0.46036000
       23.800000     0.019886500 -1.2279673E-003       1.7632316       1.7555029      0.44025484
       24.140000     0.023299787 -1.2831584E-003       1.7913316       1.7837912      0.42271942
       24.480000     0.026415858 -1.2958716E-003       1.8196198       1.8122304      0.40775029
       24.820000     0.029130946 -1.2655406E-003       1.8481004       1.8408236      0.39530010
       25.160000     0.031339106 -1.1923355E-003       1.8767774       1.8695743      0.38527920
       25.500000     0.032935527 -1.0772194E-003       1.9056535       1.8984856      0.37755760
       25.840000     0.033820658 -9.2197023E-004       1.9347310       1.9275611      0.37196723
       26.180000     0.033905078 -7.2915832E-004       1.9640112       1.9568042      0.36830489
       26.520000     0.033114959 -5.0207573E-004       1.9934947       1.9862184      0.36633581
       26.860000     0.031397844 -2.4461213E-004       2.0231812       2.0158074      0.36579813
       27.200000     0.028728353  3.8921296E-005       2.0530699       2.0455747      0.36640838
       27.540000     0.025113315  3.4401512E-004       2.0831594       2.0755242      0.36786794
       27.880000     0.020595706  6.6622149E-004       2.1134478       2.1056595      0.36987046
       28.220000     0.015256748  1.0014343E-003       2.1439329       2.1359847      0.37211003
       28.560000  9.2155033E-003  1.3461681E-003       2.1746127       2.1665037      0.37428944
       28.900000  2.6254382E-003  1.6978104E-003       2.2054848       2.1972204      0.37612816
       29.240000 -4.3324145E-003  2.0548172E-003       2.2365474       2.2281391      0.37736895
       29.580000    -0.011459708  2.4168262E-003       2.2677989       2.2592638      0.37778251
       29.920000    -0.018554085  2.7846614E-003       2.2992384       2.2905990      0.37716920
       30.260000    -0.025424677  3.1602146E-003       2.3308652       2.3221489      0.37535751
       30.600000    -0.031908430  3.5462031E-003       2.3626792       2.3539180      0.37219941
       30.940000    -0.037885408  3.9458196E-003       2.3946806       2.3859109      0.36756354
       31.280000    -0.043290883  4.3623142E-003       2.4268696       2.4181322      0.36132807
       31.620000    -0.048121843  4.7985736E-003       2.4592464       2.4505866      0.35337620
       31.960000    -0.052435801  5.2567838E-003       2.4918116       2.4832791      0.34359789
       32.300000    -0.056340419  5.7382830E-003       2.5245660       2.5162146      0.33190159
       32.640000    -0.059973556  6.2437185E-003       2.5575113       2.5493981      0.31823955
       32.980000    -0.063474777  6.7736135E-003       2.5906518       2.5828348      0.30264863
       33.320000    -0.066950747  7.3294306E-003       2.6239952       2.6165301      0.28530713
       33.660000    -0.070437948  7.9151695E-003       2.6575556       2.6504893      0.26660565
       34.000000    -0.073866351  8.5394858E-003       2.6913552       2.6847179      0.24722827

Table series: Data for wavelength : 0.587562 µm.
   Y Angle (deg)       Tan Shift       Sag Shift     Real Height     Ref. Height      Distortion
  --------------  --------------  --------------  --------------  --------------  --------------
      0.00000000  8.2060785E-003  8.2060785E-003      0.00000000      0.00000000      0.00000000
      0.34000000  8.2127097E-003  8.1950259E-003     0.023624429     0.023624285  6.0644651E-004
      0.68000000  8.2288271E-003  8.1619998E-003     0.047251382     0.047250234  2.4285714E-003
       1.0200000  8.2554624E-003  8.1073941E-003     0.070883392     0.070879512  5.4746431E-003
       1.3600000  8.2942891E-003  8.0318575E-003     0.094523006     0.094513783  9.7582132E-003
       1.7000000  8.3475539E-003  7.9362829E-003      0.11817279      0.11815471     0.015297767
       2.0400000  8.4179811E-003  7.8217919E-003      0.14183534      0.14180397     0.022116241
       2.3800000  8.5086542E-003  7.6897161E-003      0.16551327      0.16546323     0.030240403
       2.7200000  8.6228755E-003  7.5415740E-003      0.18920925      0.18913417     0.039700104
       3.0600000  8.7640071E-003  7.3790446E-003      0.21292598      0.21281845     0.050527404
       3.4000000  8.9352962E-003  7.2039388E-003      0.23666620      0.23651777     0.062755571
       3.7400000  9.1396885E-003  7.0181671E-003      0.26043267      0.26023380     0.076417970
       4.0800000  9.3796337E-003  6.8237059E-003      0.28422820      0.28396824     0.091546838
       4.4200000  9.6568870E-003  6.6225623E-003      0.30805565      0.30772278      0.10817196
       4.7600000  9.9723120E-003  6.4167372E-003      0.33191787      0.33149912      0.12631927
       5.1000000     0.010325689  6.2081889E-003      0.35581774      0.35529897      0.14600934
       5.4400000     0.010715534  5.9987961E-003      0.37975815      0.37912405      0.16725584
       5.7800000     0.011138935  5.7903216E-003      0.40374198      0.40297606      0.19006392
       6.1200000     0.011591413  5.5843784E-003      0.42777206      0.42685675      0.21442859
       6.4600000     0.012066805  5.3823966E-003      0.45185120      0.45076785      0.24033308
       6.8000000     0.012557189  5.1855937E-003      0.47598213      0.47471110      0.26774719
       7.1400000     0.013052845  4.9949483E-003      0.50016750      0.49868827      0.29662571
       7.4800000     0.013542265  4.8111777E-003      0.52440985      0.52270110      0.32690691
       7.8200000     0.014012217  4.6347195E-003      0.54871155      0.54675138      0.35851111
       8.1600000     0.014447869  4.4657189E-003      0.57307483      0.57084090      0.39133939
       8.5000000     0.014832972  4.3040219E-003      0.59750170      0.59497145      0.42527252
       8.8400000     0.015150118  4.1491734E-003      0.62199395      0.61914484      0.46017004
       9.1800000     0.015381062  4.0004228E-003      0.64655312      0.64336288      0.49586969
       9.5200000     0.015507118  3.8567355E-003      0.67118045      0.66762742      0.53218707
       9.8600000     0.015509623  3.7168114E-003      0.69587687      0.69194031      0.56891573
       10.200000     0.015370459  3.5791099E-003      0.72064296      0.71630340      0.60582762
       10.540000     0.015072636  3.4418814E-003      0.74547898      0.74071857      0.64267408
       10.880000     0.014600905  3.3032045E-003      0.77038478      0.76518772      0.67918722
       11.220000     0.013942402  3.1610294E-003      0.79535984      0.78971275      0.71508197
       11.560000     0.013087288  3.0132246E-003      0.82040328      0.81429558      0.75005861
       11.900000     0.012029366  2.8576279E-003      0.84551382      0.83893817      0.78380598
       12.240000     0.010766648  2.6921000E-003      0.87068983      0.86364247      0.81600526
       12.580000  9.3018389E-003  2.5145777E-003      0.89592937      0.88841045      0.84633436
       12.920000  7.6427053E-003  2.3231271E-003      0.92123019      0.91324412      0.87447282
       13.260000  5.8023143E-003  2.1159943E-003      0.94658981      0.93814549      0.90010736
       13.600000  3.7991044E-003  1.8916515E-003      0.97200558      0.96311661      0.92293768
       13.940000  1.6567809E-003  1.6488371E-003      0.99747474      0.98815953      0.94268269
       14.280000 -5.9597620E-004  1.3865887E-003       1.0229945       1.0132763      0.95908686
       14.620000 -2.9259897E-003  1.1042671E-003       1.0485623       1.0384691      0.97192656
       14.960000 -5.2962370E-003  8.0157036E-004       1.0741755       1.0637400      0.98101619
       15.300000 -7.6666543E-003  4.7853834E-004       1.0998320       1.0890912      0.98621388
       15.640000 -9.9950629E-003  1.3554634E-004       1.1255299       1.1145248      0.98742657
       15.980000    -0.012238178 -2.2671018E-004       1.1512681       1.1400431      0.98461415
       16.320000    -0.014352662 -6.0723957E-004       1.1770458       1.1656482      0.97779253
       16.660000    -0.016296166 -1.0047843E-003       1.2028632       1.1913425      0.96703545
       17.000000    -0.018028335 -1.4178561E-003       1.2287210       1.2171282      0.95247477
       17.340000    -0.019511725 -1.8447723E-003       1.2546210       1.2430076      0.93429934
       17.680000    -0.020712606 -2.2836926E-003       1.2805658       1.2689831      0.91275217
       18.020000    -0.021601634 -2.7326517E-003       1.3065588       1.2950571      0.88812621
       18.360000    -0.022154384 -3.1895876E-003       1.3326045       1.3212319      0.86075861
       18.700000    -0.022351738 -3.6523616E-003       1.3587082       1.3475100      0.83102381
       19.040000    -0.022180153 -4.1187721E-003       1.3848758       1.3738939      0.79932559
       19.380000    -0.021631829 -4.5865583E-003       1.4111143       1.4003861      0.76608850
       19.720000    -0.020704793 -5.0533988E-003       1.4374311       1.4269892      0.73174879
       20.060000    -0.019402957 -5.5169029E-003       1.4638342       1.4537056      0.69674542
       20.400000    -0.017736163 -5.9745994E-003       1.4903320       1.4805381      0.66151127
       20.740000    -0.015720257 -6.4239263E-003       1.5169331       1.5074892      0.62646488
       21.080000    -0.013377220 -6.8622227E-003       1.5436465       1.5345618      0.59200311
       21.420000    -0.010735363 -7.2867290E-003       1.5704809       1.5617585      0.55849461
       21.760000 -7.8296033E-003 -7.6945976E-003       1.5974451       1.5890821      0.52627457
       22.100000 -4.7017941E-003 -8.0829173E-003       1.6245477       1.6165355      0.49564044
       22.440000 -1.4010878E-003 -8.4487535E-003       1.6517971       1.6441215      0.46684886
       22.780000  2.0157197E-003 -8.7892052E-003       1.6792011       1.6718431      0.44011361
       23.120000  5.4839348E-003 -9.1014788E-003       1.7067672       1.6997031      0.41560445
       23.460000  8.9308886E-003 -9.3829758E-003       1.7345023       1.7277047      0.39344679
       23.800000     0.012276139 -9.6313928E-003       1.7624129       1.7558509      0.37372191
       24.140000     0.015432069 -9.8448266E-003       1.7905047       1.7841448      0.35646774
       24.480000     0.018304995    -0.010021880       1.8187829       1.8125896      0.34167994
       24.820000     0.020796899    -0.010161758       1.8472518       1.8411885      0.32931337
       25.160000     0.022807878    -0.010264351       1.8759153       1.8699449      0.31928374
       25.500000     0.024239364    -0.010330287       1.9047764       1.8988620      0.31146965
       25.840000     0.024998120    -0.010360956       1.9338372       1.9279432      0.30571499
       26.180000     0.025000944    -0.010358490       1.9630995       1.9571921      0.30183190
       26.520000     0.024179923    -0.010325691       1.9925641       1.9866122      0.29960438
       26.860000     0.022487960    -0.010265920       2.0222313       2.0162070      0.29879272
       27.200000     0.019904203    -0.010182924       2.0521005       2.0459802      0.29913891
       27.540000     0.016438863    -0.010080627       2.0821711       2.0759356      0.30037285
       27.880000     0.012136850 -9.9628855E-003       2.1124419       2.1060769      0.30221953
       28.220000  7.0795724E-003 -9.8332259E-003       2.1429115       2.1364081      0.30440664
       28.560000  1.3842897E-003 -9.6945840E-003       2.1735785       2.1669331      0.30667223
       28.900000 -4.7995106E-003 -9.5490759E-003       2.2044417       2.1976560      0.30877184
       29.240000    -0.011297031 -9.3978230E-003       2.2355001       2.2285807      0.31048413
       29.580000    -0.017918397 -9.2408607E-003       2.2667533       2.2597117      0.31161428
       29.920000    -0.024471825 -9.0771512E-003       2.2982010       2.2910530      0.31199448
       30.260000    -0.030778872 -8.9047168E-003       2.3298437       2.3226092      0.31148104
       30.600000    -0.036690421 -8.7208912E-003       2.3616820       2.3543846      0.30994835
       30.940000    -0.042101563 -8.5226733E-003       2.3937167       2.3863838      0.30728081
       31.280000    -0.046963204 -8.3071420E-003       2.4259487       2.4186115      0.30336468
       31.620000    -0.051288063 -8.0718704E-003       2.4583786       2.4510724      0.29808269
       31.960000    -0.055148971 -7.8152531E-003       2.4910070       2.4837714      0.29131523
       32.300000    -0.058668005 -7.5366440E-003       2.5238345       2.5167134      0.28295181
       32.640000    -0.061996140 -7.2361960E-003       2.5568626       2.5499035      0.27291630
