Results for:	
File:	C:\Users\User\OneDrive - Massachusetts Institute of Technology\Documents\MIT\Grad School\Classes\2.156\Lens Project\Prime Lenses\Imaging_Optics_Figure_7_6.zmx
Title:	Apochromatic doublet (0.425 to 1.5 micron wavelength), Imaging Optics p. 434
Date:	11/7/2025 5:24:17 PM

0 message(s) in output.
9 series table(s) in output.

Table series: Data for wavelength : 0.425000 µm.
        Y Height       Tan Shift       Sag Shift     Real Height     Ref. Height      Distortion
  --------------  --------------  --------------  --------------  --------------  --------------
      0.00000000     0.041653569     0.041653569      0.00000000      0.00000000      0.00000000
     0.010000000     0.041651861     0.041652725  9.9957543E-003  9.9957543E-003  2.4713458E-008
     0.020000000     0.041646635     0.041650191     0.019991509     0.019991509  9.8853953E-008
     0.030000000     0.041637892     0.041645969     0.029987263     0.029987263  2.2242145E-007
     0.040000000     0.041625633     0.041640057     0.039983017     0.039983017  3.9541597E-007
     0.050000000     0.041609856     0.041632456     0.049978772     0.049978771  6.1783756E-007
     0.060000000     0.041590563     0.041623166     0.059974526     0.059974526  8.8968614E-007
     0.070000000     0.041567753     0.041612187     0.069970281     0.069970280  1.2109619E-006
     0.080000000     0.041541426     0.041599519     0.079966036     0.079966034  1.5816648E-006
     0.090000000     0.041511582     0.041585161     0.089961790     0.089961789  2.0017949E-006
      0.10000000     0.041478222     0.041569115     0.099957545     0.099957543  2.4713521E-006
      0.11000000     0.041441344     0.041551379      0.10995330      0.10995330  2.9903368E-006
      0.12000000     0.041400950     0.041531955      0.11994906      0.11994905  3.5587487E-006
      0.13000000     0.041357039     0.041510841      0.12994481      0.12994481  4.1765881E-006
      0.14000000     0.041309611     0.041488039      0.13994057      0.13994056  4.8438550E-006
      0.15000000     0.041258666     0.041463547      0.14993632      0.14993631  5.5605494E-006
      0.16000000     0.041204205     0.041437366      0.15993208      0.15993207  6.3266715E-006
      0.17000000     0.041146226     0.041409496      0.16992784      0.16992782  7.1422214E-006
      0.18000000     0.041084731     0.041379937      0.17992359      0.17992358  8.0071992E-006
      0.19000000     0.041019719     0.041348689      0.18991935      0.18991933  8.9216049E-006
      0.20000000     0.040951191     0.041315752      0.19991511      0.19991509  9.8854387E-006
      0.21000000     0.040879145     0.041281126      0.20991086      0.20991084  1.0898701E-005
      0.22000000     0.040803583     0.041244811      0.21990662      0.21990659  1.1961391E-005
      0.23000000     0.040724504     0.041206806      0.22990238      0.22990235  1.3073510E-005
      0.24000000     0.040641909     0.041167113      0.23989814      0.23989810  1.4235057E-005
      0.25000000     0.040555797     0.041125731      0.24989390      0.24989386  1.5446033E-005
      0.26000000     0.040466168     0.041082659      0.25988966      0.25988961  1.6706438E-005
      0.27000000     0.040373022     0.041037899      0.26988541      0.26988537  1.8016272E-005
      0.28000000     0.040276360     0.040991450      0.27988117      0.27988112  1.9375535E-005
      0.29000000     0.040176181     0.040943311      0.28987693      0.28987687  2.0784227E-005
      0.30000000     0.040072486     0.040893484      0.29987270      0.29987263  2.2242349E-005
      0.31000000     0.039965274     0.040841967      0.30986846      0.30986838  2.3749900E-005
      0.32000000     0.039854545     0.040788762      0.31986422      0.31986414  2.5306882E-005
      0.33000000     0.039740300     0.040733867      0.32985998      0.32985989  2.6913293E-005
      0.34000000     0.039622538     0.040677284      0.33985574      0.33985565  2.8569135E-005
      0.35000000     0.039501260     0.040619012      0.34985151      0.34985140  3.0274407E-005
      0.36000000     0.039376465     0.040559050      0.35984727      0.35984715  3.2029110E-005
      0.37000000     0.039248154     0.040497400      0.36984303      0.36984291  3.3833244E-005
      0.38000000     0.039116326     0.040434060      0.37983880      0.37983866  3.5686809E-005
      0.39000000     0.038980982     0.040369032      0.38983456      0.38983442  3.7589805E-005
      0.40000000     0.038842121     0.040302315      0.39983033      0.39983017  3.9542232E-005
      0.41000000     0.038699745     0.040233909      0.40982610      0.40982593  4.1544092E-005
      0.42000000     0.038553851     0.040163814      0.41982186      0.41982168  4.3595383E-005
      0.43000000     0.038404442     0.040092030      0.42981763      0.42981743  4.5696107E-005
      0.44000000     0.038251516     0.040018557      0.43981340      0.43981319  4.7846263E-005
      0.45000000     0.038095073     0.039943395      0.44980917      0.44980894  5.0045852E-005
      0.46000000     0.037935115     0.039866544      0.45980494      0.45980470  5.2294874E-005
      0.47000000     0.037771640     0.039788005      0.46980071      0.46980045  5.4593329E-005
      0.48000000     0.037604649     0.039707776      0.47979648      0.47979621  5.6941218E-005
      0.49000000     0.037434142     0.039625859      0.48979225      0.48979196  5.9338540E-005
      0.50000000     0.037260119     0.039542253      0.49978802      0.49978771  6.1785297E-005
      0.51000000     0.037082579     0.039456957      0.50978380      0.50978347  6.4281489E-005
      0.52000000     0.036901524     0.039369974      0.51977957      0.51977922  6.6827115E-005
      0.53000000     0.036716952     0.039281301      0.52977535      0.52977498  6.9422176E-005
      0.54000000     0.036528865     0.039190939      0.53977112      0.53977073  7.2066672E-005
      0.55000000     0.036337261     0.039098889      0.54976690      0.54976649  7.4760605E-005
      0.56000000     0.036142142     0.039005150      0.55976267      0.55976224  7.7503973E-005
      0.57000000     0.035943506     0.038909722      0.56975845      0.56975799  8.0296778E-005
      0.58000000     0.035741355     0.038812605      0.57975423      0.57975375  8.3139019E-005
      0.59000000     0.035535688     0.038713799      0.58975001      0.58974950  8.6030697E-005
      0.60000000     0.035326505     0.038613305      0.59974579      0.59974526  8.8971813E-005
      0.61000000     0.035113806     0.038511122      0.60974157      0.60974101  9.1962366E-005
      0.62000000     0.034897591     0.038407250      0.61973735      0.61973677  9.5002358E-005
      0.63000000     0.034677861     0.038301690      0.62973314      0.62973252  9.8091788E-005
      0.64000000     0.034454615     0.038194441      0.63972892      0.63972827  1.0123066E-004
      0.65000000     0.034227853     0.038085503      0.64972471      0.64972403  1.0441896E-004
      0.66000000     0.033997576     0.037974876      0.65972049      0.65971978  1.0765671E-004
      0.67000000     0.033763783     0.037862561      0.66971628      0.66971554  1.1094390E-004
      0.68000000     0.033526475     0.037748557      0.67971207      0.67971129  1.1428053E-004
      0.69000000     0.033285651     0.037632864      0.68970786      0.68970705  1.1766660E-004
      0.70000000     0.033041312     0.037515483      0.69970365      0.69970280  1.2110211E-004
      0.71000000     0.032793457     0.037396413      0.70969944      0.70969855  1.2458706E-004
      0.72000000     0.032542087     0.037275655      0.71969523      0.71969431  1.2812145E-004
      0.73000000     0.032287201     0.037153208      0.72969102      0.72969006  1.3170529E-004
      0.74000000     0.032028801     0.037029072      0.73968682      0.73968582  1.3533857E-004
      0.75000000     0.031766885     0.036903248      0.74968261      0.74968157  1.3902129E-004
      0.76000000     0.031501454     0.036775736      0.75967841      0.75967733  1.4275346E-004
      0.77000000     0.031232507     0.036646534      0.76967421      0.76967308  1.4653507E-004
      0.78000000     0.030960046     0.036515645      0.77967001      0.77966883  1.5036612E-004
      0.79000000     0.030684070     0.036383066      0.78966581      0.78966459  1.5424662E-004
      0.80000000     0.030404578     0.036248800      0.79966161      0.79966034  1.5817657E-004
      0.81000000     0.030121572     0.036112844      0.80965741      0.80965610  1.6215596E-004
      0.82000000     0.029835051     0.035975201      0.81965321      0.81965185  1.6618480E-004
      0.83000000     0.029545014     0.035835869      0.82964902      0.82964761  1.7026308E-004
      0.84000000     0.029251463     0.035694848      0.83964482      0.83964336  1.7439082E-004
      0.85000000     0.028954398     0.035552139      0.84964063      0.84963911  1.7856800E-004
      0.86000000     0.028653817     0.035407742      0.85963644      0.85963487  1.8279463E-004
      0.87000000     0.028349722     0.035261656      0.86963225      0.86963062  1.8707071E-004
      0.88000000     0.028042112     0.035113882      0.87962806      0.87962638  1.9139623E-004
      0.89000000     0.027730988     0.034964420      0.88962387      0.88962213  1.9577121E-004
      0.90000000     0.027416349     0.034813269      0.89961969      0.89961789  2.0019564E-004
      0.91000000     0.027098196     0.034660430      0.90961550      0.90961364  2.0466952E-004
      0.92000000     0.026776528     0.034505902      0.91961132      0.91960940  2.0919285E-004
      0.93000000     0.026451346     0.034349687      0.92960714      0.92960515  2.1376564E-004
      0.94000000     0.026122650     0.034191783      0.93960296      0.93960090  2.1838788E-004
      0.95000000     0.025790439     0.034032191      0.94959878      0.94959666  2.2305957E-004
      0.96000000     0.025454714     0.033870911      0.95959460      0.95959241  2.2778071E-004
      0.97000000     0.025115475     0.033707942      0.96959042      0.96958817  2.3255131E-004
      0.98000000     0.024772722     0.033543285      0.97958625      0.97958392  2.3737136E-004
      0.99000000     0.024426455     0.033376940      0.98958207      0.98957968  2.4224087E-004
       1.0000000     0.024076674     0.033208907      0.99957790      0.99957543  2.4715984E-004

Table series: Data for wavelength : 0.450000 µm.
        Y Height       Tan Shift       Sag Shift     Real Height     Ref. Height      Distortion
  --------------  --------------  --------------  --------------  --------------  --------------
      0.00000000     0.028493128     0.028493128      0.00000000      0.00000000      0.00000000
     0.010000000     0.028491435     0.028492284  9.9955823E-003  9.9955823E-003  2.4566540E-008
     0.020000000     0.028486227     0.028489752     0.019991165     0.019991165  9.8266004E-008
     0.030000000     0.028477503     0.028485532     0.029986747     0.029986747  2.2109859E-007
     0.040000000     0.028465264     0.028479624     0.039982330     0.039982329  3.9306412E-007
     0.050000000     0.028449511     0.028472028     0.049977912     0.049977912  6.1416274E-007
     0.060000000     0.028430241     0.028462744     0.059973495     0.059973494  8.8439447E-007
     0.070000000     0.028407457     0.028451772     0.069969077     0.069969076  1.2037593E-006
     0.080000000     0.028381158     0.028439112     0.079964660     0.079964659  1.5722573E-006
     0.090000000     0.028351343     0.028424764     0.089960243     0.089960241  1.9898884E-006
      0.10000000     0.028318013     0.028408728     0.099955826     0.099955823  2.4566529E-006
      0.11000000     0.028281168     0.028391004      0.10995141      0.10995141  2.9725507E-006
      0.12000000     0.028240808     0.028371591      0.11994699      0.11994699  3.5375817E-006
      0.13000000     0.028196933     0.028350491      0.12994258      0.12994257  4.1517463E-006
      0.14000000     0.028149542     0.028327703      0.13993816      0.13993815  4.8150444E-006
      0.15000000     0.028098637     0.028303227      0.14993374      0.14993374  5.5274760E-006
      0.16000000     0.028044216     0.028277063      0.15992933      0.15992932  6.2890413E-006
      0.17000000     0.027986280     0.028249211      0.16992491      0.16992490  7.0997404E-006
      0.18000000     0.027924829     0.028219671      0.17992050      0.17992048  7.9595734E-006
      0.19000000     0.027859863     0.028188443      0.18991608      0.18991606  8.8685403E-006
      0.20000000     0.027791382     0.028155527      0.19991167      0.19991165  9.8266414E-006
      0.21000000     0.027719386     0.028120923      0.20990725      0.20990723  1.0833877E-005
      0.22000000     0.027643874     0.028084631      0.21990284      0.21990281  1.1890246E-005
      0.23000000     0.027564848     0.028046651      0.22989842      0.22989839  1.2995750E-005
      0.24000000     0.027482306     0.028006984      0.23989401      0.23989398  1.4150389E-005
      0.25000000     0.027396250     0.027965628      0.24988960      0.24988956  1.5354162E-005
      0.26000000     0.027306679     0.027922584      0.25988518      0.25988514  1.6607070E-005
      0.27000000     0.027213592     0.027877852      0.26988077      0.26988072  1.7909113E-005
      0.28000000     0.027116991     0.027831433      0.27987636      0.27987631  1.9260292E-005
      0.29000000     0.027016874     0.027783325      0.28987195      0.28987189  2.0660605E-005
      0.30000000     0.026913243     0.027733530      0.29986754      0.29986747  2.2110055E-005
      0.31000000     0.026806097     0.027682046      0.30986313      0.30986305  2.3608640E-005
      0.32000000     0.026695435     0.027628875      0.31985872      0.31985863  2.5156360E-005
      0.33000000     0.026581259     0.027574015      0.32985431      0.32985422  2.6753217E-005
      0.34000000     0.026463568     0.027517468      0.33984990      0.33984980  2.8399210E-005
      0.35000000     0.026342363     0.027459233      0.34984549      0.34984538  3.0094340E-005
      0.36000000     0.026217642     0.027399310      0.35984108      0.35984096  3.1838606E-005
      0.37000000     0.026089406     0.027337699      0.36983667      0.36983655  3.3632009E-005
      0.38000000     0.025957656     0.027274401      0.37983226      0.37983213  3.5474549E-005
      0.39000000     0.025822391     0.027209414      0.38982786      0.38982771  3.7366227E-005
      0.40000000     0.025683611     0.027142740      0.39982345      0.39982329  3.9307042E-005
      0.41000000     0.025541317     0.027074377      0.40981905      0.40981888  4.1296994E-005
      0.42000000     0.025395508     0.027004327      0.41981464      0.41981446  4.3336085E-005
      0.43000000     0.025246184     0.026932589      0.42981024      0.42981004  4.5424314E-005
      0.44000000     0.025093345     0.026859163      0.43980583      0.43980562  4.7561682E-005
      0.45000000     0.024936992     0.026784050      0.44980143      0.44980121  4.9748188E-005
      0.46000000     0.024777125     0.026707248      0.45979703      0.45979679  5.1983833E-005
      0.47000000     0.024613742     0.026628759      0.46979262      0.46979237  5.4268618E-005
      0.48000000     0.024446845     0.026548582      0.47978822      0.47978795  5.6602542E-005
      0.49000000     0.024276434     0.026466717      0.48978382      0.48978353  5.8985606E-005
      0.50000000     0.024102508     0.026383164      0.49977942      0.49977912  6.1417810E-005
      0.51000000     0.023925068     0.026297924      0.50977503      0.50977470  6.3899155E-005
      0.52000000     0.023744113     0.026210996      0.51977063      0.51977028  6.6429640E-005
      0.53000000     0.023559644     0.026122380      0.52976623      0.52976586  6.9009267E-005
      0.54000000     0.023371661     0.026032076      0.53976183      0.53976145  7.1638035E-005
      0.55000000     0.023180163     0.025940085      0.54975744      0.54975703  7.4315944E-005
      0.56000000     0.022985151     0.025846405      0.55975304      0.55975261  7.7042996E-005
      0.57000000     0.022786624     0.025751039      0.56974865      0.56974819  7.9819190E-005
      0.58000000     0.022584584     0.025653984      0.57974425      0.57974378  8.2644526E-005
      0.59000000     0.022379029     0.025555242      0.58973986      0.58973936  8.5519006E-005
      0.60000000     0.022169960     0.025454812      0.59973547      0.59973494  8.8442629E-005
      0.61000000     0.021957377     0.025352694      0.60973108      0.60973052  9.1415395E-005
      0.62000000     0.021741280     0.025248889      0.61972669      0.61972611  9.4437306E-005
      0.63000000     0.021521668     0.025143396      0.62972230      0.62972169  9.7508361E-005
      0.64000000     0.021298543     0.025036216      0.63971791      0.63971727  1.0062856E-004
      0.65000000     0.021071904     0.024927348      0.64971353      0.64971285  1.0379791E-004
      0.66000000     0.020841751     0.024816792      0.65970914      0.65970843  1.0701640E-004
      0.67000000     0.020608084     0.024704549      0.66970476      0.66970402  1.1028403E-004
      0.68000000     0.020370903     0.024590618      0.67970037      0.67969960  1.1360082E-004
      0.69000000     0.020130208     0.024475000      0.68969599      0.68969518  1.1696675E-004
      0.70000000     0.019885999     0.024357694      0.69969161      0.69969076  1.2038182E-004
      0.71000000     0.019638277     0.024238700      0.70968722      0.70968635  1.2384605E-004
      0.72000000     0.019387041     0.024118019      0.71968284      0.71968193  1.2735942E-004
      0.73000000     0.019132291     0.023995651      0.72967847      0.72967751  1.3092194E-004
      0.74000000     0.018874028     0.023871595      0.73967409      0.73967309  1.3453361E-004
      0.75000000     0.018612251     0.023745851      0.74966971      0.74966868  1.3819443E-004
      0.76000000     0.018346961     0.023618420      0.75966534      0.75966426  1.4190440E-004
      0.77000000     0.018078157     0.023489302      0.76966096      0.76965984  1.4566352E-004
      0.78000000     0.017805840     0.023358496      0.77965659      0.77965542  1.4947179E-004
      0.79000000     0.017530009     0.023226003      0.78965222      0.78965100  1.5332921E-004
      0.80000000     0.017250665     0.023091822      0.79964784      0.79964659  1.5723578E-004
      0.81000000     0.016967808     0.022955954      0.80964347      0.80964217  1.6119151E-004
      0.82000000     0.016681437     0.022818398      0.81963911      0.81963775  1.6519638E-004
      0.83000000     0.016391553     0.022679155      0.82963474      0.82963333  1.6925041E-004
      0.84000000     0.016098156     0.022538225      0.83963037      0.83962892  1.7335360E-004
      0.85000000     0.015801246     0.022395608      0.84962601      0.84962450  1.7750594E-004
      0.86000000     0.015500823     0.022251303      0.85962164      0.85962008  1.8170743E-004
      0.87000000     0.015196887     0.022105311      0.86961728      0.86961566  1.8595808E-004
      0.88000000     0.014889438     0.021957631      0.87961292      0.87961125  1.9025788E-004
      0.89000000     0.014578476     0.021808265      0.88960856      0.88960683  1.9460684E-004
      0.90000000     0.014264001     0.021657211      0.89960420      0.89960241  1.9900495E-004
      0.91000000     0.013946014     0.021504470      0.90959984      0.90959799  2.0345222E-004
      0.92000000     0.013624513     0.021350041      0.91959549      0.91959358  2.0794865E-004
      0.93000000     0.013299500     0.021193926      0.92959113      0.92958916  2.1249424E-004
      0.94000000     0.012970975     0.021036123      0.93958678      0.93958474  2.1708899E-004
      0.95000000     0.012638936     0.020876633      0.94958243      0.94958032  2.2173290E-004
