Results for:	
File:	C:\Users\User\OneDrive - Massachusetts Institute of Technology\Documents\MIT\Grad School\Classes\2.156\Lens Project\Prime Lenses\US20180095255_Example02P.zmx
Title:	US 2018/0095255 Example 2 (Canon Extender EF1.4X III)
Date:	11/7/2025 5:53:40 PM

0 message(s) in output.
3 series table(s) in output.

Table series: Data for wavelength : 0.486133 µm.
   Y Angle (deg)       Tan Shift       Sag Shift     Real Height     Ref. Height      Distortion
  --------------  --------------  --------------  --------------  --------------  --------------
      0.00000000      -161.03077      -161.03077      0.00000000      0.00000000      0.00000000
      0.17582561      -161.03046      -161.03064      0.20963397      0.20963396  2.0226660E-006
      0.35165121      -161.02952      -161.03026      0.41927191      0.41927188  8.0864884E-006
      0.52747682      -161.02795      -161.02964      0.62891780      0.62891768  1.8175774E-005
      0.70330242      -161.02575      -161.02876      0.83857561      0.83857534  3.2264873E-005
      0.87912803      -161.02293      -161.02763       1.0482493       1.0482488  5.0317830E-005
       1.0549536      -161.01948      -161.02626       1.2579429       1.2579420  7.2288337E-005
       1.2307792      -161.01543      -161.02463       1.4676603       1.4676589  9.8119678E-005
       1.4066048      -161.01076      -161.02276       1.6774056       1.6774034  1.2774466E-004
       1.5824304      -161.00549      -161.02065       1.8871827       1.8871796  1.6108551E-004
       1.7582561      -160.99963      -161.01829       2.0969955       2.0969914  1.9805380E-004
       1.9340817      -160.99319      -161.01569       2.3068481       2.3068426  2.3855033E-004
       2.1099073      -160.98618      -161.01285       2.5167445       2.5167374  2.8246499E-004
       2.2857329      -160.97861      -161.00978       2.7266886       2.7266796  3.2967662E-004
       2.4615585      -160.97049      -161.00647       2.9366845       2.9366733  3.8005290E-004
       2.6373841      -160.96184      -161.00292       3.1467360       3.1467224  4.3345010E-004
       2.8132097      -160.95267      -160.99915       3.3568473       3.3568309  4.8971298E-004
       2.9890353      -160.94300      -160.99516       3.5670223       3.5670027  5.4867456E-004
       3.1648609      -160.93284      -160.99094       3.7772650       3.7772419  6.1015591E-004
       3.3406865      -160.92221      -160.98650       3.9875794       3.9875525  6.7396590E-004
       3.5165121      -160.91114      -160.98185       4.1979695       4.1979384  7.3990102E-004
       3.6923377      -160.89965      -160.97698       4.4084394       4.4084037  8.0774508E-004
       3.8681633      -160.88774      -160.97191       4.6189929       4.6189524  8.7726893E-004
       4.0439889      -160.87546      -160.96663       4.8296343       4.8295885  9.4823022E-004
       4.2198145      -160.86282      -160.96116       5.0403674       5.0403160  1.0203730E-003
       4.3956401      -160.84984      -160.95550       5.2511963       5.2511389  1.0934276E-003
       4.5714657      -160.83656      -160.94964       5.4621251       5.4620613  1.1671101E-003
       4.7472913      -160.82300      -160.94360       5.6731577       5.6730873  1.2411218E-003
       4.9231169      -160.80919      -160.93739       5.8842982       5.8842208  1.3151495E-003
       5.0989426      -160.79516      -160.93100       6.0955507       6.0954660  1.3888644E-003
       5.2747682      -160.78095      -160.92445       6.3069191       6.3068269  1.4619220E-003
       5.4505938      -160.76658      -160.91774       6.5184076       6.5183076  1.5339617E-003
       5.6264194      -160.75210      -160.91088       6.7300202       6.7299122  1.6046064E-003
       5.8022450      -160.73753      -160.90386       6.9417610       6.9416448  1.6734617E-003
       5.9780706      -160.72291      -160.89671       7.1536339       7.1535095  1.7401158E-003
       6.1538962      -160.70829      -160.88943       7.3656432       7.3655103  1.8041388E-003
       6.3297218      -160.69371      -160.88203       7.5777929       7.5776515  1.8650822E-003
       6.5055474      -160.67920      -160.87450       7.7900870       7.7899372  1.9224782E-003
       6.6813730      -160.66481      -160.86687       8.0025297       8.0023715  1.9758395E-003
       6.8571986      -160.65058      -160.85914       8.2151250       8.2149586  2.0246582E-003
       7.0330242      -160.63657      -160.85131       8.4278770       8.4277027  2.0684057E-003
       7.2088498      -160.62282      -160.84341       8.6407899       8.6406079  2.1065315E-003
       7.3846754      -160.60938      -160.83543       8.8538678       8.8536785  2.1384629E-003
       7.5605010      -160.59630      -160.82738       9.0671148       9.0669186  2.1636042E-003
       7.7363266      -160.58364      -160.81928       9.2805349       9.2803325  2.1813359E-003
       7.9121522      -160.57146      -160.81114       9.4941324       9.4939244  2.1910140E-003
       8.0879778      -160.55981      -160.80296       9.7079114       9.7076986  2.1919693E-003
       8.2638034      -160.54875      -160.79476       9.9218759       9.9216593  2.1835062E-003
       8.4396290      -160.53835      -160.78654       10.136030       10.135811  2.1649024E-003
       8.6154547      -160.52867      -160.77833       10.350378       10.350157  2.1354075E-003
       8.7912803      -160.51978      -160.77012       10.564925       10.564703  2.0942424E-003
       8.9671059      -160.51175      -160.76194       10.779673       10.779453  2.0405981E-003
       9.1429315      -160.50464      -160.75379       10.994628       10.994411  1.9736351E-003
       9.3187571      -160.49854      -160.74569       11.209793       11.209581  1.8924819E-003
       9.4945827      -160.49351      -160.73765       11.425174       11.424968  1.7962342E-003
       9.6704083      -160.48965      -160.72969       11.640773       11.640577  1.6839537E-003
       9.8462339      -160.48703      -160.72181       11.856595       11.856411  1.5546670E-003
       10.022059      -160.48573      -160.71404       12.072644       12.072475  1.4073643E-003
       10.197885      -160.48585      -160.70638       12.288926       12.288773  1.2409984E-003
       10.373711      -160.48748      -160.69886       12.505442       12.505310  1.0544832E-003
       10.549536      -160.49071      -160.69148       12.722199       12.722091  8.4669219E-004
       10.725362      -160.49564      -160.68427       12.939200       12.939120  6.1645761E-004
       10.901188      -160.50237      -160.67724       13.156449       13.156401  3.6256854E-004
       11.077013      -160.51100      -160.67041       13.373950       13.373939  8.3769589E-005
       11.252839      -160.52165      -160.66379       13.591709       13.591739 -2.2124067E-004
       11.428664      -160.53443      -160.65740       13.809728       13.809805 -5.5381130E-004
       11.604490      -160.54945      -160.65126       14.028013       14.028141 -9.1534066E-004
       11.780316      -160.56683      -160.64540       14.246567       14.246753 -1.3072781E-003
       11.956141      -160.58671      -160.63982       14.465395       14.465645 -1.7311258E-003
       12.131967      -160.60920      -160.63455       14.684500       14.684822 -2.1884407E-003
       12.307792      -160.63445      -160.62961       14.903888       14.904287 -2.6808360E-003
       12.483618      -160.66260      -160.62502       15.123562       15.124047 -3.2099839E-003
       12.659444      -160.69379      -160.62080       15.343527       15.344106 -3.7776169E-003
       12.835269      -160.72816      -160.61698       15.563786       15.564469 -4.3855304E-003
       13.011095      -160.76589      -160.61357       15.784345       15.785139 -5.0355848E-003
       13.186920      -160.80712      -160.61061       16.005206       16.006123 -5.7297080E-003
       13.362746      -160.85204      -160.60811       16.226375       16.227425 -6.4698971E-003
       13.538572      -160.90080      -160.60610       16.447856       16.449050 -7.2582220E-003
       13.714397      -160.95361      -160.60460       16.669653       16.671003 -8.0968270E-003
       13.890223      -161.01063      -160.60364       16.891770       16.893288 -8.9879339E-003
       14.066048      -161.07208      -160.60325       17.114211       17.115911 -9.9338447E-003
       14.241874      -161.13816      -160.60346       17.336980       17.338876    -0.010936945
       14.417700      -161.20908      -160.60429       17.560082       17.562190    -0.011999705
       14.593525      -161.28506      -160.60578       17.783521       17.785855    -0.013124685
       14.769351      -161.36633      -160.60795       18.007301       18.009879    -0.014314540
       14.945176      -161.45314      -160.61083       18.231426       18.234265    -0.015572016
       15.121002      -161.54573      -160.61446       18.455900       18.459019    -0.016899962
       15.296828      -161.64438      -160.61887       18.680727       18.684146    -0.018301328
       15.472653      -161.74934      -160.62409       18.905912       18.909652    -0.019779172
       15.648479      -161.86091      -160.63016       19.131458       19.135541    -0.021336661
       15.824304      -161.97939      -160.63711       19.357369       19.361818    -0.022977076
       16.000130      -162.10509      -160.64499       19.583651       19.588490    -0.024703820
       16.175956      -162.23833      -160.65382       19.810305       19.815560    -0.026520415
       16.351781      -162.37945      -160.66364       20.037338       20.043036    -0.028430513
       16.527607      -162.52881      -160.67451       20.264751       20.270921    -0.030437897
       16.703432      -162.68679      -160.68645       20.492550       20.499222    -0.032546488
       16.879258      -162.85378      -160.69952       20.720739       20.727944    -0.034760349
       17.055084      -163.03018      -160.71374       20.949320       20.957092    -0.037083690
       17.230909      -163.21643      -160.72918       21.178298       21.186672    -0.039520875
       17.406735      -163.41297      -160.74588       21.407678       21.416689    -0.042076425
       17.582561      -163.62030      -160.76387       21.637461       21.647149    -0.044755027

Table series: Data for wavelength : 0.587562 µm.
   Y Angle (deg)       Tan Shift       Sag Shift     Real Height     Ref. Height      Distortion
  --------------  --------------  --------------  --------------  --------------  --------------
      0.00000000      -162.16001      -162.16001      0.00000000      0.00000000      0.00000000
      0.17582561      -162.15970      -162.15988      0.20969997      0.20969997  2.2197324E-007
      0.35165121      -162.15874      -162.15948      0.41940389      0.41940389  8.8350311E-007
      0.52747682      -162.15714      -162.15883      0.62911572      0.62911571  1.9682731E-006
      0.70330242      -162.15490      -162.15791      0.83883941      0.83883938  3.4495892E-006
      0.87912803      -162.15202      -162.15673       1.0485789       1.0485788  5.2900363E-006
       1.0549536      -162.14851      -162.15530       1.2583382       1.2583381  7.4414291E-006
       1.2307792      -162.14437      -162.15360       1.4681211       1.4681210  9.8447566E-006
       1.4066048      -162.13961      -162.15164       1.6779318       1.6779316  1.2430108E-005
       1.5824304      -162.13424      -162.14943       1.8877741       1.8877738  1.5116590E-005
       1.7582561      -162.12827      -162.14697       2.0976520       2.0976516  1.7812224E-005
       1.9340817      -162.12170      -162.14425       2.3075694       2.3075690  2.0413839E-005
       2.1099073      -162.11455      -162.14128       2.5175304       2.5175298  2.2806943E-005
       2.2857329      -162.10683      -162.13807       2.7275388       2.7275382  2.4865586E-005
       2.4615585      -162.09855      -162.13461       2.9375987       2.9375979  2.6452204E-005
       2.6373841      -162.08972      -162.13090       3.1477140       3.1477132  2.7417454E-005
       2.8132097      -162.08036      -162.12696       3.3578887       3.3578878  2.7600032E-005
       2.9890353      -162.07050      -162.12278       3.5681268       3.5681258  2.6826477E-005
       3.1648609      -162.06013      -162.11836       3.7784322       3.7784312  2.4910961E-005
       3.3406865      -162.04929      -162.11372       3.9888089       3.9888080  2.1655061E-005
       3.5165121      -162.03798      -162.10885       4.1992609       4.1992602  1.6847522E-005
       3.6923377      -162.02624      -162.10375       4.4097922       4.4097918  1.0263999E-005
       3.8681633      -162.01409      -162.09844       4.6204068       4.6204068  1.6667855E-006
       4.0439889      -162.00154      -162.09292       4.8311087       4.8311092 -9.1954751E-006
       4.2198145      -161.98862      -162.08718       5.0419018       5.0419030 -2.2588093E-005
       4.3956401      -161.97536      -162.08124       5.2527903       5.2527923 -3.8790651E-005
       4.5714657      -161.96179      -162.07511       5.4637780       5.4637811 -5.8097349E-005
       4.7472913      -161.94792      -162.06878       5.6748689       5.6748735 -8.0817349E-005
       4.9231169      -161.93380      -162.06226       5.8860672       5.8860736 -1.0727516E-004
       5.0989426      -161.91945      -162.05556       6.0973769       6.0973853 -1.3781102E-004
       5.2747682      -161.90490      -162.04868       6.3088018       6.3088127 -1.7278131E-004
       5.4505938      -161.89019      -162.04163       6.5203461       6.5203600 -2.1255900E-004
       5.6264194      -161.87535      -162.03442       6.7320139       6.7320312 -2.5753405E-004
       5.8022450      -161.86042      -162.02705       6.9438091       6.9438305 -3.0811394E-004
       5.9780706      -161.84544      -162.01953       7.1557357       7.1557618 -3.6472412E-004
       6.1538962      -161.83044      -162.01187       7.3677979       7.3678295 -4.2780855E-004
       6.3297218      -161.81546      -162.00408       7.5799997       7.5800375 -4.9783019E-004
       6.5055474      -161.80056      -161.99616       7.7923452       7.7923900 -5.7527161E-004
       6.6813730      -161.78576      -161.98812       8.0048383       8.0048912 -6.6063554E-004
       6.8571986      -161.77113      -161.97997       8.2174832       8.2175452 -7.5444547E-004
       7.0330242      -161.75669      -161.97171       8.4302840       8.4303563 -8.5724629E-004
       7.2088498      -161.74252      -161.96337       8.6432447       8.6433285 -9.6960493E-004
       7.3846754      -161.72864      -161.95494       8.8563695       8.8564662 -1.0921111E-003
       7.5605010      -161.71513      -161.94643       9.0696623       9.0697734 -1.2253778E-003
       7.7363266      -161.70203      -161.93787       9.2831273       9.2832545 -1.3700425E-003
       7.9121522      -161.68939      -161.92924       9.4967687       9.4969137 -1.5267672E-003
       8.0879778      -161.67729      -161.92058       9.7105904       9.7107552 -1.6962399E-003
       8.2638034      -161.66577      -161.91188       9.9245967       9.9247832 -1.8791752E-003
       8.4396290      -161.65490      -161.90316       10.138792       10.139002 -2.0763150E-003
       8.6154547      -161.64475      -161.89442       10.353179       10.353416 -2.2884293E-003
       8.7912803      -161.63538      -161.88569       10.567764       10.568030 -2.5163178E-003
       8.9671059      -161.62687      -161.87698       10.782550       10.782847 -2.7608098E-003
       9.1429315      -161.61928      -161.86829       10.997540       10.997873 -3.0227663E-003
       9.3187571      -161.61269      -161.85963       11.212740       11.213111 -3.3030801E-003
       9.4945827      -161.60718      -161.85103       11.428154       11.428566 -3.6026774E-003
       9.6704083      -161.60282      -161.84250       11.643785       11.644242 -3.9225190E-003
       9.8462339      -161.59971      -161.83404       11.859638       11.860144 -4.2636009E-003
       10.022059      -161.59792      -161.82568       12.075717       12.076276 -4.6269559E-003
       10.197885      -161.59755      -161.81743       12.292026       12.292642 -5.0136548E-003
       10.373711      -161.59868      -161.80930       12.508569       12.509248 -5.4248078E-003
       10.549536      -161.60142      -161.80131       12.725351       12.726097 -5.8615654E-003
       10.725362      -161.60585      -161.79348       12.942375       12.943194 -6.3251202E-003
       10.901188      -161.61209      -161.78582       13.159646       13.160543 -6.8167082E-003
       11.077013      -161.62023      -161.77835       13.377168       13.378150 -7.3376101E-003
       11.252839      -161.63039      -161.77108       13.594946       13.596018 -7.8891533E-003
       11.428664      -161.64269      -161.76404       13.812982       13.814153 -8.4727129E-003
       11.604490      -161.65722      -161.75724       14.031283       14.032558 -9.0897139E-003
       11.780316      -161.67413      -161.75071       14.249851       14.251239 -9.7416325E-003
       11.956141      -161.69354      -161.74446       14.468690       14.470200    -0.010429998
       12.131967      -161.71556      -161.73850       14.687806       14.689445    -0.011156396
       12.307792      -161.74035      -161.73287       14.907203       14.908980    -0.011922466
       12.483618      -161.76805      -161.72759       15.126884       15.128809    -0.012729909
       12.659444      -161.79879      -161.72267       15.346853       15.348938    -0.013580487
       12.835269      -161.83273      -161.71813       15.567115       15.569369    -0.014476024
       13.011095      -161.87002      -161.71401       15.787675       15.790110    -0.015418409
       13.186920      -161.91084      -161.71032       16.008536       16.011163    -0.016409599
       13.362746      -161.95534      -161.70709       16.229702       16.232535    -0.017451623
       13.538572      -162.00371      -161.70435       16.451178       16.454229    -0.018546579
       13.714397      -162.05613      -161.70211       16.672967       16.676252    -0.019696643
       13.890223      -162.11279      -161.70041       16.895075       16.898607    -0.020904067
       14.066048      -162.17388      -161.69927       17.117504       17.121300    -0.022171184
       14.241874      -162.23962      -161.69872       17.340260       17.344336    -0.023500410
       14.417700      -162.31021      -161.69879       17.563346       17.567719    -0.024894248
       14.593525      -162.38588      -161.69950       17.786766       17.791455    -0.026355290
       14.769351      -162.46686      -161.70090       18.010526       18.015549    -0.027886221
       14.945176      -162.55340      -161.70301       18.234627       18.240006    -0.029489820
       15.121002      -162.64574      -161.70586       18.459076       18.464831    -0.031168968
       15.296828      -162.74415      -161.70948       18.683875       18.690029    -0.032926648
       15.472653      -162.84891      -161.71392       18.909030       18.915606    -0.034765949
       15.648479      -162.96030      -161.71919       19.134543       19.141566    -0.036690072
       15.824304      -163.07862      -161.72535       19.360419       19.367915    -0.038702331
       16.000130      -163.20419      -161.73243       19.586662       19.594657    -0.040806159
       16.175956      -163.33732      -161.74046       19.813275       19.821800    -0.043005113
       16.351781      -163.47837      -161.74948       20.040264       20.049347    -0.045302876
       16.527607      -163.62769      -161.75954       20.267631       20.277304    -0.047703267
       16.703432      -163.78566      -161.77067       20.495381       20.505677    -0.050210236
