Results for:	
File:	C:\Users\User\OneDrive - Massachusetts Institute of Technology\Documents\MIT\Grad School\Classes\2.156\Lens Project\Prime Lenses\US03850509-1.zmx
Title:	
Date:	11/7/2025 5:45:39 PM

0 message(s) in output.
3 series table(s) in output.

Table series: Data for wavelength : 0.486133 µm.
   Y Angle (deg)       Tan Shift       Sag Shift     Real Height     Ref. Height      Distortion
  --------------  --------------  --------------  --------------  --------------  --------------
      0.00000000    -0.019182633    -0.019182633      0.00000000      0.00000000      0.00000000
      0.89000000    -0.019220955    -0.019198654  7.3745328E-003  7.3752912E-003    -0.010282800
       1.7800000    -0.019333141    -0.019246714     0.014748075     0.014754143    -0.041126041
       2.6700000    -0.019519179    -0.019326804     0.022119636     0.022140123    -0.092530892
       3.5600000    -0.019779049    -0.019438908     0.029488225     0.029536812     -0.16449652
       4.4500000    -0.020112724    -0.019583006     0.036852848     0.036947812     -0.25702177
       5.3400000    -0.020520169    -0.019759069     0.044212513     0.044376753     -0.37010510
       6.2300000    -0.021001341    -0.019967064     0.051566223     0.051827300     -0.50374464
       7.1200000    -0.021556189    -0.020206951     0.058912982     0.059303160     -0.65793813
       8.0100000    -0.022184654    -0.020478686     0.066251790     0.066808089     -0.83268293
       8.9000000    -0.022886670    -0.020782216     0.073581644     0.074345902      -1.0279760
       9.7900000    -0.023662165    -0.021117485     0.080901540     0.081920478      -1.2438137
       10.680000    -0.024511056    -0.021484430     0.088210470     0.089535771      -1.4801923
       11.570000    -0.025433256    -0.021882982     0.095507421     0.097195817      -1.7371071
       12.460000    -0.026428667    -0.022313066      0.10279138      0.10490474      -2.0145534
       13.350000    -0.027497188    -0.022774604      0.11006132      0.11266677      -2.3125255
       14.240000    -0.028638707    -0.023267510      0.11731623      0.12048624      -2.6310174
       15.130000    -0.029853106    -0.023791693      0.12455506      0.12836761      -2.9700223
       16.020000    -0.031140260    -0.024347058      0.13177680      0.13631547      -3.3295328
       16.910000    -0.032500037    -0.024933504      0.13898040      0.14433454      -3.7095410
       17.800000    -0.033932296    -0.025550925      0.14616480      0.15242972      -4.1100378
       18.690000    -0.035436892    -0.026199210      0.15332898      0.16060606      -4.5310137
       19.580000    -0.037013668    -0.026878244      0.16047186      0.16886879      -4.9724581
       20.470000    -0.038662465    -0.027587905      0.16759238      0.17722333      -5.4343597
       21.360000    -0.040383111    -0.028328069      0.17468948      0.18567534      -5.9167060
       22.250000    -0.042175431    -0.029098606      0.18176207      0.19423067      -6.4194836
       23.140000    -0.044039239    -0.029899381      0.18880907      0.20289545      -6.9426780
       24.030000    -0.045974343    -0.030730256      0.19582939      0.21167604      -7.4862736
       24.920000    -0.047980542    -0.031591088      0.20282193      0.22057911      -8.0502535
       25.810000    -0.050057626    -0.032481728      0.20978559      0.22961164      -8.6345995
       26.700000    -0.052205376    -0.033402026      0.21671925      0.23878091      -9.2392920
       27.590000    -0.054423565    -0.034351825      0.22362178      0.24809460      -9.8643101
       28.480000    -0.056711954    -0.035330965      0.23049206      0.25756074      -10.509631
       29.370000    -0.059070295    -0.036339282      0.23732894      0.26718779      -11.175231
       30.260000    -0.061498329    -0.037376606      0.24413127      0.27698465      -11.861084
       31.150000    -0.063995784    -0.038442765      0.25089790      0.28696073      -12.567163
       32.040000    -0.066562377    -0.039537580      0.25762767      0.29712592      -13.293437
       32.930000    -0.069197811    -0.040660870      0.26431939      0.30749070      -14.039876
       33.820000    -0.071901774    -0.041812448      0.27097188      0.31806618      -14.806446
       34.710000    -0.074673938    -0.042992122      0.27758395      0.32886409      -15.593112
       35.600000    -0.077513961    -0.044199696      0.28415439      0.33989693      -16.399834
       36.490000    -0.080421479    -0.045434968      0.29068200      0.35117793      -17.226574
       37.380000    -0.083396112    -0.046697731      0.29716555      0.36272120      -18.073288
       38.270000    -0.086437456    -0.047987772      0.30360381      0.37454176      -18.939932
       39.160000    -0.089545086    -0.049304872      0.30999554      0.38665565      -19.826456
       40.050000    -0.092718552    -0.050648804      0.31633950      0.39908000      -20.732810
       40.940000    -0.095957376    -0.052019336      0.32263443      0.41183311      -21.658940
       41.830000    -0.099261052    -0.053416227      0.32887905      0.42493463      -22.604790
       42.720000     -0.10262904    -0.054839230      0.33507211      0.43840563      -23.570300
       43.610000     -0.10606078    -0.056288086      0.34121231      0.45226873      -24.555405
       44.500000     -0.10955565    -0.057762530      0.34729837      0.46654830      -25.560041
       45.390000     -0.11311301    -0.059262283      0.35332898      0.48127062      -26.584136
       46.280000     -0.11673216    -0.060787059      0.35930285      0.49646403      -27.627616
       47.170000     -0.12041238    -0.062336556      0.36521867      0.51215923      -28.690405
       48.060000     -0.12415287    -0.063910462      0.37107511      0.52838944      -29.772421
       48.950000     -0.12795280    -0.065508449      0.37687085      0.54519074      -30.873579
       49.840000     -0.13181128    -0.067130176      0.38260456      0.56260237      -31.993788
       50.730000     -0.13572733    -0.068775283      0.38827492      0.58066709      -33.132956
       51.620000     -0.13969995    -0.070443393      0.39388057      0.59943155      -34.290984
       52.510000     -0.14372804    -0.072134110      0.39942019      0.61894684      -35.467770
       53.400000     -0.14781042    -0.073847017      0.40489244      0.63926892      -36.663207
       54.290000     -0.15194586    -0.075581674      0.41029596      0.66045935      -37.877182
       55.180000     -0.15613301    -0.077337619      0.41562941      0.68258589      -39.109581
       56.070000     -0.16037046    -0.079114361      0.42089146      0.70572340      -40.360280
       56.960000     -0.16465667    -0.080911382      0.42608075      0.72995474      -41.629155
       57.850000     -0.16899003    -0.082728136      0.43119596      0.75537193      -42.916073
       58.740000     -0.17336880    -0.084564041      0.43623575      0.78207741      -44.220899
       59.630000     -0.17779112    -0.086418486      0.44119878      0.81018558      -45.543492
       60.520000     -0.18225504    -0.088290818      0.44608374      0.83982464      -46.883704
       61.410000     -0.18675845    -0.090180349      0.45088931      0.87113867      -48.241385
       62.300000     -0.19129912    -0.092086348      0.45561419      0.90429026      -49.616377
       63.190000     -0.19587467    -0.094008041      0.46025710      0.93946353      -51.008519
       64.080000     -0.20048259    -0.095944607      0.46481674      0.97686785      -52.417644
       64.970000     -0.20512018    -0.097895177      0.46929186       1.0167423      -53.843579
       65.860000     -0.20978460    -0.099858829      0.47368121       1.0593612      -55.286147
       66.750000     -0.21447286     -0.10183459      0.47798356       1.1050408      -56.745167
       67.640000     -0.21918175     -0.10382142      0.48219770       1.1541477      -58.220452
       68.530000     -0.22390792     -0.10581824      0.48632245       1.2071092      -59.711810
       69.420000     -0.22864779     -0.10782389      0.49035664       1.2644265      -61.219046
       70.310000     -0.23339763     -0.10983716      0.49429914       1.3266912      -62.741960
       71.200000     -0.23815347     -0.11185675      0.49814884       1.3946072      -64.280347
       72.090000     -0.24291117     -0.11388133      0.50190466       1.4690179      -65.833999
       72.980000     -0.24766635     -0.11590945      0.50556554       1.5509433      -67.402707
       73.870000     -0.25241443     -0.11793964      0.50913047       1.6416284      -68.986254
       74.760000     -0.25715061     -0.11997031      0.51259846       1.7426090      -70.584424
       75.650000     -0.26186989     -0.12199983      0.51596856       1.8558016      -72.196998
       76.540000     -0.26656701     -0.12402646      0.51923985       1.9836299      -73.823754
       77.430000     -0.27123652     -0.12604841      0.52241145       2.1292037      -75.464468
       78.320000     -0.27587275     -0.12806380      0.52548251       2.2965806      -77.118917
       79.210000     -0.28046980     -0.13007068      0.52845222       2.4911569      -78.786876
       80.100000     -0.28502155     -0.13206701      0.53131979       2.7202693      -80.468118
       80.990000     -0.28952169     -0.13405068      0.53408448       2.9941533      -82.162421
       81.880000     -0.29396370     -0.13601951      0.53674557       3.3275317      -83.869558
       82.770000     -0.29834085     -0.13797125      0.53930236       3.7423765      -85.589308
       83.660000     -0.30264626     -0.13990356      0.54175420       4.2729973      -87.321448
       84.550000     -0.30687283     -0.14181407      0.54410043       4.9761150      -89.065758
       85.440000     -0.31101335     -0.14370030      0.54634043       5.9527322      -90.822022
       86.330000     -0.31506043     -0.14555977      0.54847357       7.4018268      -92.590024
       87.220000     -0.31900659     -0.14738989      0.55049923       9.7771822      -94.369551
       88.110000     -0.32284421     -0.14918806      0.55241678       14.387328      -96.160393
       89.000000     -0.32656562     -0.15095164      0.55422560       27.199154      -97.962343

Table series: Data for wavelength : 0.587562 µm.
   Y Angle (deg)       Tan Shift       Sag Shift     Real Height     Ref. Height      Distortion
  --------------  --------------  --------------  --------------  --------------  --------------
      0.00000000     0.014897973     0.014897973      0.00000000      0.00000000      0.00000000
      0.89000000     0.014857983     0.014881326  7.5297546E-003  7.5305239E-003    -0.010215662
       1.7800000     0.014740817     0.014831389     0.015058528     0.015064683    -0.040862560
       2.6700000     0.014546491     0.014748171     0.022585337     0.022606121    -0.091940412
       3.5600000     0.014275028     0.014631691     0.030109199     0.030158493     -0.16344874
       4.4500000     0.013926464     0.014481970     0.037629132     0.037725477     -0.25538688
       5.3400000     0.013500842     0.014299041     0.045144148     0.045310781     -0.36775394
       6.2300000     0.012998216     0.014082939     0.052653263     0.052918144     -0.50054884
       7.1200000     0.012418649     0.013833710     0.060155487     0.060551353     -0.65377023
       8.0100000     0.011762215     0.013551402     0.067649828     0.068214244     -0.82741653
       8.9000000     0.011028995     0.013236073     0.075135293     0.075910710      -1.0214859
       9.7900000     0.010219081     0.012887787     0.082610885     0.083644714      -1.2359762
       10.680000  9.3325755E-003     0.012506613     0.090075604     0.091420291      -1.4708850
       11.570000  8.3695882E-003     0.012092626     0.097528445     0.099241562      -1.7262094
       12.460000  7.3302390E-003     0.011645910      0.10496840      0.10711274      -2.0019464
       13.350000  6.2146570E-003     0.011166552      0.11239446      0.11503814      -2.2980924
       14.240000  5.0229804E-003     0.010654647      0.11980560      0.12302219      -2.6146432
       15.130000  3.7553564E-003     0.010110296      0.12720081      0.13106945      -2.9515946
       16.020000  2.4119410E-003  9.5336033E-003      0.13457905      0.13918459      -3.3089414
       16.910000  9.9289972E-004  8.9246820E-003      0.14193930      0.14737245      -3.6866781
       17.800000 -5.0159343E-004  8.2836491E-003      0.14928052      0.15563802      -4.0847986
       18.690000 -2.0713553E-003  7.6106276E-003      0.15660165      0.16398644      -4.5032961
       19.580000 -3.7161936E-003  6.9057458E-003      0.16390165      0.17242308      -4.9421630
       20.470000 -5.4359073E-003  6.1691373E-003      0.17117947      0.18095347      -5.4013912
       21.360000 -7.2302859E-003  5.4009408E-003      0.17843403      0.18958337      -5.8809715
       22.250000 -9.0991102E-003  4.6013002E-003      0.18566427      0.19831878      -6.3808940
       23.140000    -0.011042151  3.7703644E-003      0.19286910      0.20716592      -6.9011478
       24.030000    -0.013059170  2.9082871E-003      0.20004744      0.21613133      -7.4417212
       24.920000    -0.015149919  2.0152268E-003      0.20719819      0.22522179      -8.0026011
       25.810000    -0.017314140  1.0913470E-003      0.21432025      0.23444443      -8.5837735
       26.700000    -0.019551565  1.3681560E-004      0.22141251      0.24380670      -9.1852233
       27.590000    -0.021861913 -8.4819466E-004      0.22847384      0.25331641      -9.8069337
       28.480000    -0.024244895 -1.8635065E-003      0.23550312      0.26298179      -10.448887
       29.370000    -0.026700209 -2.9089379E-003      0.24249921      0.27281147      -11.111064
       30.260000    -0.029227539 -3.9843023E-003      0.24946096      0.28281454      -11.793444
       31.150000    -0.031826558 -5.0894085E-003      0.25638722      0.29300058      -12.496003
       32.040000    -0.034496926 -6.2240607E-003      0.26327681      0.30337972      -13.218719
       32.930000    -0.037238286 -7.3880580E-003      0.27012856      0.31396267      -13.961566
       33.820000    -0.040050267 -8.5811948E-003      0.27694129      0.32476073      -14.724514
       34.710000    -0.042932482 -9.8032606E-003      0.28371380      0.33578592      -15.507535
       35.600000    -0.045884523    -0.011054039      0.29044488      0.34705096      -16.310597
       36.490000    -0.048905968    -0.012333310      0.29713332      0.35856940      -17.133666
       37.380000    -0.051996371    -0.013640846      0.30377789      0.37035563      -17.976705
       38.270000    -0.055155264    -0.014976413      0.31037737      0.38242500      -18.839675
       39.160000    -0.058382157    -0.016339774      0.31693049      0.39479386      -19.722537
       40.050000    -0.061676534    -0.017730681      0.32343602      0.40747970      -20.625244
       40.940000    -0.065037851    -0.019148882      0.32989267      0.42050124      -21.547752
       41.830000    -0.068465534    -0.020594117      0.33629919      0.43387852      -22.490011
       42.720000    -0.071958980    -0.022066117      0.34265429      0.44763304      -23.451968
       43.610000    -0.075517548    -0.023564604      0.34895666      0.46178793      -24.433568
       44.500000    -0.079140561    -0.025089292      0.35520502      0.47636806      -25.434753
       45.390000    -0.082827304    -0.026639883      0.36139805      0.49140024      -26.455460
       46.280000    -0.086577016    -0.028216069      0.36753443      0.50691344      -27.495625
       47.170000    -0.090388893    -0.029817531      0.37361283      0.52293899      -28.555177
       48.060000    -0.094262080    -0.031443934      0.37963193      0.53951080      -29.634046
       48.950000    -0.098195667    -0.033094934      0.38559037      0.55666574      -30.732154
       49.840000     -0.10218869    -0.034770166      0.39148681      0.57444384      -31.849421
       50.730000     -0.10624012    -0.036469255      0.39731989      0.59288878      -32.985763
       51.620000     -0.11034887    -0.038191803      0.40308826      0.61204819      -34.141091
       52.510000     -0.11451377    -0.039937395      0.40879054      0.63197423      -35.315314
       53.400000     -0.11873359    -0.041705597      0.41442538      0.65272405      -36.508333
       54.290000     -0.12300702    -0.043495951      0.41999139      0.67436048      -37.720047
       55.180000     -0.12733263    -0.045307976      0.42548721      0.69695274      -38.950350
       56.070000     -0.13170896    -0.047141164      0.43091144      0.72057723      -40.199131
       56.960000     -0.13613440    -0.048994981      0.43626273      0.74531859      -41.466276
       57.850000     -0.14060727    -0.050868863      0.44153969      0.77127075      -42.751662
       58.740000     -0.14512577    -0.052762215      0.44674094      0.79853832      -44.055165
       59.630000     -0.14968799    -0.054674408      0.45186512      0.82723810      -45.376655
       60.520000     -0.15429189    -0.056604776      0.45691086      0.85750099      -46.715997
       61.410000     -0.15893532    -0.058552616      0.46187679      0.88947411      -48.073049
       62.300000     -0.16361598    -0.060517183      0.46676156      0.92332347      -49.447667
       63.190000     -0.16833143    -0.062497692      0.47156382      0.95923705      -50.839699
       64.080000     -0.17307910    -0.064493308      0.47628224      0.99742864      -52.248991
       64.970000     -0.17785626    -0.066503152      0.48091549       1.0381424      -53.675381
       65.860000     -0.18266000    -0.068526290      0.48546226       1.0816583      -55.118704
       66.750000     -0.18748727    -0.070561739      0.48992124       1.1282994      -56.578789
       67.640000     -0.19233482    -0.072608457      0.49429117       1.1784398      -58.055460
       68.530000     -0.19719925    -0.074665344      0.49857078       1.2325161      -59.548537
       69.420000     -0.20207694    -0.076731242      0.50275882       1.2910397      -61.057834
       70.310000     -0.20696410    -0.078804925      0.50685407       1.3546150      -62.583163
       71.200000     -0.21185674    -0.080885106      0.51085534       1.4239604      -64.124329
       72.090000     -0.21675066    -0.082970426      0.51476144       1.4999373      -65.681136
       72.980000     -0.22164145    -0.085059458      0.51857124       1.5835871      -67.253380
       73.870000     -0.22652449    -0.087150705      0.52228360       1.6761809      -68.840857
       74.760000     -0.23139496    -0.089242594      0.52589744       1.7792868      -70.443358
       75.650000     -0.23624781    -0.091333478      0.52941169       1.8948619      -72.060672
       76.540000     -0.24107776    -0.093421635      0.53282532       2.0253807      -73.692585
       77.430000     -0.24587933    -0.095505266      0.53613732       2.1740185      -75.338880
       78.320000     -0.25064681    -0.097582495      0.53934671       2.3449183      -76.999339
       79.210000     -0.25537428    -0.099651371      0.54245256       2.5435900      -78.673742
       80.100000     -0.26005561     -0.10170986      0.54545394       2.7775247      -80.361869
       80.990000     -0.26468445     -0.10375587      0.54834997       3.0571733      -82.063497
       81.880000     -0.26925425     -0.10578721      0.55113978       3.3975685      -83.778406
       82.770000     -0.27375827     -0.10780164      0.55382253       3.8211448      -85.506372
       83.660000     -0.27818959     -0.10979684      0.55639740       4.3629340      -87.247173
       84.550000     -0.28254112     -0.11177042      0.55886359       5.0808506      -89.000590
       85.440000     -0.28680559     -0.11371994      0.56122030       6.0780234      -90.766401
