Results for:	
File:	C:\Users\User\OneDrive - Massachusetts Institute of Technology\Documents\MIT\Grad School\Classes\2.156\Lens Project\Prime Lenses\US05930056-1.zmx
Title:	
Date:	11/7/2025 5:47:34 PM

0 message(s) in output.
3 series table(s) in output.

Table series: Data for wavelength : 0.486133 µm.
        Y Height       Tan Shift       Sag Shift     Real Height     Ref. Height      Distortion
  --------------  --------------  --------------  --------------  --------------  --------------
      0.00000000     0.068780101     0.068780101      0.00000000      0.00000000      0.00000000
       1.5000000     0.068765068     0.068745182      0.25221681      0.25221681 -1.8042391E-007
       3.0000000     0.068717350     0.068640453      0.50443362      0.50443362 -7.3127158E-007
       4.5000000     0.068636978     0.068466001      0.75665042      0.75665043 -1.6812699E-006
       6.0000000     0.068524003     0.068221969       1.0088672       1.0088672 -3.0783002E-006
       7.5000000     0.068378497     0.067908558       1.2610840       1.2610841 -4.9894028E-006
       9.0000000     0.068200554     0.067526028       1.5133008       1.5133009 -7.5007838E-006
       10.500000     0.067990286     0.067074694       1.7655175       1.7655177 -1.0717823E-005
       12.000000     0.067747827     0.066554928       2.0177342       2.0177345 -1.4765084E-005
       13.500000     0.067473329     0.065967161       2.2699509       2.2699513 -1.9786328E-005
       15.000000     0.067166964     0.065311880       2.5221675       2.5221681 -2.5944526E-005
       16.500000     0.066828925     0.064589628       2.7743840       2.7743849 -3.3421875E-005
       18.000000     0.066459421     0.063801006       3.0266005       3.0266017 -4.2419820E-005
       19.500000     0.066058683     0.062946670       3.2788168       3.2788185 -5.3159070E-005
       21.000000     0.065626955     0.062027333       3.5310330       3.5310354 -6.5879622E-005
       22.500000     0.065164503     0.061043764       3.7832491       3.7832522 -8.0840790E-005
       24.000000     0.064671608     0.059996788       4.0354650       4.0354690 -9.8321226E-005
       25.500000     0.064148567     0.058887283       4.2876807       4.2876858 -1.1861896E-004
       27.000000     0.063595692     0.057716186       4.5398962       4.5399026 -1.4205141E-004
       28.500000     0.063013313     0.056484485       4.7921113       4.7921194 -1.6895545E-004
       30.000000     0.062401771     0.055193226       5.0443262       5.0443362 -1.9968742E-004
       31.500000     0.061761422     0.053843506       5.2965406       5.2965530 -2.3462319E-004
       33.000000     0.061092634     0.052436478       5.5487546       5.5487698 -2.7415818E-004
       34.500000     0.060395787     0.050973347       5.8009682       5.8009867 -3.1870742E-004
       36.000000     0.059671273     0.049455371       6.0531812       6.0532035 -3.6870561E-004
       37.500000     0.058919493     0.047883862       6.3053935       6.3054203 -4.2460716E-004
       39.000000     0.058140855     0.046260184       6.5576052       6.5576371 -4.8688624E-004
       40.500000     0.057335778     0.044585750       6.8098160       6.8098539 -5.5603685E-004
       42.000000     0.056504687     0.042862027       7.0620260       7.0620707 -6.3257292E-004
       43.500000     0.055648010     0.041090532       7.3142351       7.3142875 -7.1702830E-004
       45.000000     0.054766183     0.039272831       7.5664431       7.5665043 -8.0995692E-004
       46.500000     0.053859642     0.037410542       7.8186498       7.8187211 -9.1193281E-004
       48.000000     0.052928827     0.035505329       8.0708553       8.0709380 -1.0235502E-003
       49.500000     0.051974176     0.033558907       8.3230594       8.3231548 -1.1454236E-003
       51.000000     0.050996128     0.031573039       8.5752620       8.5753716 -1.2781880E-003
       52.500000     0.049995117     0.029549532       8.8274628       8.8275884 -1.4224987E-003
       54.000000     0.048971576     0.027490244       9.0796618       9.0798052 -1.5790317E-003
       55.500000     0.047925929     0.025397077       9.3318588       9.3320220 -1.7484837E-003
       57.000000     0.046858593     0.023271977       9.5840537       9.5842388 -1.9315721E-003
       58.500000     0.045769976     0.021116937       9.8362462       9.8364556 -2.1290355E-003
       60.000000     0.044660475     0.018933992       10.088436       10.088672 -2.3416332E-003
       61.500000     0.043530474     0.016725222       10.340623       10.340889 -2.5701461E-003
       63.000000     0.042380341     0.014492748       10.592808       10.593106 -2.8153760E-003
       64.500000     0.041210426     0.012238734       10.844989       10.845323 -3.0781467E-003
       66.000000     0.040021061  9.9653835E-003       11.097167       11.097540 -3.3593032E-003
       67.500000     0.038812556  7.6749404E-003       11.349341       11.349757 -3.6597127E-003
       69.000000     0.037585196  5.3696882E-003       11.601512       11.601973 -3.9802642E-003
       70.500000     0.036339241  3.0519486E-003       11.853678       11.854190 -4.3218689E-003
       72.000000     0.035074920  7.2408070E-004       12.105840       12.106407 -4.6854605E-003
       73.500000     0.033792433 -1.6115198E-003       12.357997       12.358624 -5.0719952E-003
       75.000000     0.032491944 -3.9524216E-003       12.610149       12.610841 -5.4824521E-003
       76.500000     0.031173582 -6.2961587E-003       12.862296       12.863057 -5.9178334E-003
       78.000000     0.029837432 -8.6402314E-003       13.114438       13.115274 -6.3791644E-003
       79.500000     0.028483541    -0.010982107       13.366573       13.367491 -6.8674941E-003
       81.000000     0.027111907    -0.013319222       13.618702       13.619708 -7.3838953E-003
       82.500000     0.025722480    -0.015648982       13.870825       13.871925 -7.9294647E-003
       84.000000     0.024315158    -0.017968762       14.122940       14.124141 -8.5053238E-003
       85.500000     0.022889783    -0.020275908       14.375048       14.376358 -9.1126183E-003
       87.000000     0.021446136    -0.022567743       14.627148       14.628575 -9.7525193E-003
       88.500000     0.019983938    -0.024841558       14.879240       14.880792    -0.010426223
       90.000000     0.018502840    -0.027094622       15.131324       15.133009    -0.011134951
       91.500000     0.017002425    -0.029324181       15.383398       15.385225    -0.011879952
       93.000000     0.015482200    -0.031527457       15.635462       15.637442    -0.012662501
       94.500000     0.013941593    -0.033701650       15.887517       15.889659    -0.013483897
       96.000000     0.012379949    -0.035843941       16.139560       16.141876    -0.014345472
       97.500000     0.010796526    -0.037951493       16.391593       16.394093    -0.015248579
       99.000000  9.1904880E-003    -0.040021450       16.643614       16.646310    -0.016194605
       100.50000  7.5609036E-003    -0.042050940       16.895622       16.898526    -0.017184963
       102.00000  5.9067384E-003    -0.044037079       17.147618       17.150743    -0.018221094
       103.50000  4.2268512E-003    -0.045976966       17.399600       17.402960    -0.019304472
       105.00000  2.5199879E-003    -0.047867692       17.651569       17.655177    -0.020436597
       106.50000  7.8477743E-004    -0.049706335       17.903522       17.907394    -0.021619005
       108.00000 -9.8027616E-004    -0.051489967       18.155460       18.159610    -0.022853260
       109.50000 -2.7767968E-003    -0.053215649       18.407382       18.411827    -0.024140958
       111.00000 -4.6065450E-003    -0.054880442       18.659288       18.664044    -0.025483729
       112.50000 -6.4714219E-003    -0.056481399       18.911176       18.916261    -0.026883236
       114.00000 -8.3734776E-003    -0.058015573       19.163045       19.168478    -0.028341176
       115.50000    -0.010314917    -0.059480016       19.414896       19.420694    -0.029859282
       117.00000    -0.012298105    -0.060871781       19.666726       19.672911    -0.031439322
       118.50000    -0.014325576    -0.062187927       19.918536       19.925128    -0.033083099
       120.00000    -0.016400043    -0.063425515       20.170325       20.177345    -0.034792456
       121.50000    -0.018524399    -0.064581616       20.422091       20.429562    -0.036569273
       123.00000    -0.020701731    -0.065653307       20.673834       20.681779    -0.038415469
       124.50000    -0.022935324    -0.066637680       20.925552       20.933995    -0.040333003
       126.00000    -0.025228672    -0.067531837       21.177245       21.186212    -0.042323876
       127.50000    -0.027585485    -0.068332897       21.428912       21.438429    -0.044390131
       129.00000    -0.030009699    -0.069037998       21.680552       21.690646    -0.046533854
       130.50000    -0.032505485    -0.069644294       21.932164       21.942863    -0.048757176
       132.00000    -0.035077259    -0.070148966       22.183746       22.195079    -0.051062272
       133.50000    -0.037729691    -0.070549216       22.435298       22.447296    -0.053451367
       135.00000    -0.040467715    -0.070842275       22.686818       22.699513    -0.055926731
       136.50000    -0.043296540    -0.071025402       22.938305       22.951730    -0.058490687
       138.00000    -0.046221662    -0.071095890       23.189758       23.203947    -0.061145604
       139.50000    -0.049248874    -0.071051065       23.441176       23.456163    -0.063893909
       141.00000    -0.052384278    -0.070888293       23.692558       23.708380    -0.066738078
       142.50000    -0.055634297    -0.070604979       23.943901       23.960597    -0.069680647
       144.00000    -0.059005688    -0.070198570       24.195205       24.212814    -0.072724205
       145.50000    -0.062505554    -0.069666561       24.446469       24.465031    -0.075871403
       147.00000    -0.066141357    -0.069006497       24.697690       24.717248    -0.079124950
       148.50000    -0.069920933    -0.068215973       24.948868       24.969464    -0.082487621
       150.00000    -0.073852508    -0.067292642       25.200000       25.221681    -0.085962252

Table series: Data for wavelength : 0.587562 µm.
        Y Height       Tan Shift       Sag Shift     Real Height     Ref. Height      Distortion
  --------------  --------------  --------------  --------------  --------------  --------------
      0.00000000      0.13503863      0.13503863      0.00000000      0.00000000      0.00000000
       1.5000000      0.13502995      0.13500212      0.25216672      0.25216671  2.2494447E-006
       3.0000000      0.13500172      0.13489262      0.50433346      0.50433342  8.9888428E-006
       4.5000000      0.13495398      0.13471022      0.75650028      0.75650013  2.0191363E-005
       6.0000000      0.13488679      0.13445506       1.0086672       1.0086668  3.5812288E-005
       7.5000000      0.13480021      0.13412735       1.2608343       1.2608335  5.5789007E-005
       9.0000000      0.13469437      0.13372734       1.5130015       1.5130003  8.0041013E-005
       10.500000      0.13456938      0.13325535       1.7651689       1.7651670  1.0846989E-004
       12.000000      0.13442539      0.13271175       2.0173365       2.0173337  1.4095933E-004
       13.500000      0.13426258      0.13209697       2.2695044       2.2695004  1.7737506E-004
       15.000000      0.13408114      0.13141151       2.5216726       2.5216671  2.1756492E-004
       16.500000      0.13388129      0.13065590       2.7738411       2.7738338  2.6135877E-004
       18.000000      0.13366326      0.12983075       3.0260099       3.0260005  3.0856852E-004
       19.500000      0.13342731      0.12893672       3.2781790       3.2781672  3.5898810E-004
       21.000000      0.13317373      0.12797452       3.5303485       3.5303339  4.1239345E-004
       22.500000      0.13290280      0.12694492       3.7825184       3.7825006  4.6854246E-004
       24.000000      0.13261486      0.12584875       4.0346886       4.0346674  5.2717503E-004
       25.500000      0.13231024      0.12468689       4.2868593       4.2868341  5.8801295E-004
       27.000000      0.13198929      0.12346028       4.5390303       4.5390008  6.5075993E-004
       28.500000      0.13165239      0.12216991       4.7912017       4.7911675  7.1510158E-004
       30.000000      0.13129994      0.12081683       5.0433736       5.0433342  7.8070532E-004
       31.500000      0.13093233      0.11940213       5.2955458       5.2955009  8.4722041E-004
       33.000000      0.13055000      0.11792698       5.5477183       5.5476676  9.1427788E-004
       34.500000      0.13015339      0.11639258       5.7998912       5.7998343  9.8149050E-004
       36.000000      0.12974294      0.11480020       6.0520645       6.0520010  1.0484527E-003
       37.500000      0.12931913      0.11315115       6.3042380       6.3041677  1.1147407E-003
       39.000000      0.12888244      0.11144680       6.5564118       6.5563345  1.1799120E-003
       40.500000      0.12843334      0.10968857       6.8085858       6.8085012  1.2435061E-003
       42.000000      0.12797236      0.10787793       7.0607600       7.0606679  1.3050437E-003
       43.500000      0.12749999      0.10601640       7.3129343       7.3128346  1.3640269E-003
       45.000000      0.12701675      0.10410556       7.5651087       7.5650013  1.4199393E-003
       46.500000      0.12652317      0.10214703       7.8172831       7.8171680  1.4722459E-003
       48.000000      0.12601978      0.10014247       8.0694574       8.0693347  1.5203926E-003
       49.500000      0.12550711     0.098093624       8.3216315       8.3215014  1.5638070E-003
       51.000000      0.12498570     0.096002246       8.5738055       8.5736681  1.6018972E-003
       52.500000      0.12445609     0.093870158       8.8259791       8.8258348  1.6340526E-003
       54.000000      0.12391883     0.091699225       9.0781522       9.0780015  1.6596436E-003
       55.500000      0.12337444     0.089491357       9.3303248       9.3301683  1.6780213E-003
       57.000000      0.12282346     0.087248513       9.5824968       9.5823350  1.6885174E-003
       58.500000      0.12226643     0.084972695       9.8346679       9.8345017  1.6904444E-003
       60.000000      0.12170386     0.082665949       10.086838       10.086668  1.6830951E-003
       61.500000      0.12113628     0.080330367       10.339007       10.338835  1.6657430E-003
       63.000000      0.12056419     0.077968083       10.591175       10.591002  1.6376415E-003
       64.500000      0.11998808     0.075581274       10.843342       10.843169  1.5980243E-003
       66.000000      0.11940843     0.073172157       11.095507       11.095335  1.5461050E-003
       67.500000      0.11882571     0.070742993       11.347670       11.347502  1.4810773E-003
       69.000000      0.11824037     0.068296079       11.599831       11.599669  1.4021142E-003
       70.500000      0.11765282     0.065833754       11.851990       11.851835  1.3083684E-003
       72.000000      0.11706348     0.063358395       12.104147       12.104002  1.1989720E-003
       73.500000      0.11647272     0.060872417       12.356301       12.356169  1.0730362E-003
       75.000000      0.11588089     0.058378269       12.608453       12.608335  9.2965109E-004
       76.500000      0.11528831     0.055878441       12.860601       12.860502  7.6788569E-004
       78.000000      0.11469527     0.053375451       13.112746       13.112669  5.8678748E-004
       79.500000      0.11410202     0.050871857       13.364887       13.364836  3.8538231E-004
       81.000000      0.11350878     0.048370247       13.617024       13.617002  1.6267414E-004
       82.500000      0.11291571     0.045873241       13.869158       13.869169 -8.2355245E-005
       84.000000      0.11232295     0.043383490       14.121286       14.121336 -3.5074641E-004
       85.500000      0.11173058     0.040903676       14.373410       14.373502 -6.4356263E-004
       87.000000      0.11113863     0.038436509       14.625528       14.625669 -9.6189009E-004
       88.500000      0.11054707     0.035984727       14.877641       14.877836 -1.3068383E-003
       90.000000      0.10995582     0.033551093       15.129748       15.130003 -1.6795402E-003
       91.500000      0.10936475     0.031138398       15.381849       15.382169 -2.0811527E-003
       93.000000      0.10877364     0.028749457       15.633943       15.634336 -2.5128570E-003
       94.500000      0.10818221     0.026387107       15.886030       15.886503 -2.9758587E-003
       96.000000      0.10759013     0.024054207       16.138109       16.138669 -3.4713887E-003
       97.500000      0.10699695     0.021753638       16.390180       16.390836 -4.0007029E-003
       99.000000      0.10640219     0.019488299       16.642243       16.643003 -4.5650832E-003
       100.50000      0.10580524     0.017261109       16.894297       16.895170 -5.1658375E-003
       102.00000      0.10520542     0.015075001       17.146341       17.147336 -5.8043007E-003
       103.50000      0.10460196     0.012932927       17.398375       17.399503 -6.4818346E-003
       105.00000      0.10399398     0.010837851       17.650399       17.651670 -7.1998285E-003
       106.50000      0.10338050  8.7927499E-003       17.902411       17.903836 -7.9597002E-003
       108.00000      0.10276042  6.8006120E-003       18.154412       18.156003 -8.7628958E-003
       109.50000      0.10213255  4.8644355E-003       18.406401       18.408170 -9.6108910E-003
       111.00000      0.10149555  2.9872270E-003       18.658376       18.660337    -0.010505191
       112.50000      0.10084797  1.1719997E-003       18.910338       18.912503    -0.011447332
       114.00000      0.10018823 -5.7822807E-004       19.162286       19.164670    -0.012438880
       115.50000     0.099514595 -2.2604345E-003       19.414219       19.416837    -0.013481435
       117.00000     0.098825206 -3.8715957E-003       19.666136       19.669003    -0.014576628
       118.50000     0.098118040 -5.4086880E-003       19.918037       19.921170    -0.015726122
       120.00000     0.097390916 -6.8686888E-003       20.169921       20.173337    -0.016931617
       121.50000     0.096641493 -8.2485793E-003       20.421787       20.425503    -0.018194845
       123.00000     0.095867252 -9.5453457E-003       20.673634       20.677670    -0.019517575
       124.50000     0.095065499    -0.010755981       20.925462       20.929837    -0.020901613
       126.00000     0.094233350    -0.011877488       21.177270       21.182004    -0.022348800
       127.50000     0.093367725    -0.012906880       21.429056       21.434170    -0.023861018
       129.00000     0.092465341    -0.013841182       21.680820       21.686337    -0.025440188
       130.50000     0.091522704    -0.014677437       21.932561       21.938504    -0.027088268
       132.00000     0.090536097    -0.015412702       22.184278       22.190670    -0.028807262
       133.50000     0.089501574    -0.016044055       22.435970       22.442837    -0.030599214
       135.00000     0.088414949    -0.016568596       22.687636       22.695004    -0.032466212
       136.50000     0.087271785    -0.016983448       22.939274       22.947171    -0.034410388
       138.00000     0.086067390    -0.017285760       23.190885       23.199337    -0.036433922
       139.50000     0.084796798    -0.017472710       23.442466       23.451504    -0.038539041
       141.00000     0.083454764    -0.017541509       23.694017       23.703671    -0.040728018
       142.50000     0.082035752    -0.017489398       23.945536       23.955837    -0.043003181
       144.00000     0.080533923    -0.017313659       24.197022       24.208004    -0.045366905
