Results for:	
File:	C:\Users\User\OneDrive - Massachusetts Institute of Technology\Documents\MIT\Grad School\Classes\2.156\Lens Project\Prime Lenses\US20120147254_Example04P.zmx
Title:	US 2012/0147254 Example 4 (Panasonic Lumix G Fisheye 8mm F3.5)
Date:	11/7/2025 5:52:19 PM

0 message(s) in output.
3 series table(s) in output.

Table series: Data for wavelength : 0.486133 µm.
   Y Angle (deg)       Tan Shift       Sag Shift     Real Height     Ref. Height      Distortion
  --------------  --------------  --------------  --------------  --------------  --------------
      0.00000000    -0.056372769    -0.056372769      0.00000000      0.00000000      0.00000000
      0.89000000    -0.056368511    -0.056371537      0.12196832      0.12197915 -8.8726016E-003
       1.7800000    -0.056357989    -0.056367823      0.24393058      0.24401718    -0.035490436
       2.6700000    -0.056341238    -0.056361572      0.36588069      0.36617311    -0.079857019
       3.5600000    -0.056318317    -0.056352694      0.48781258      0.48850615     -0.14197764
       4.4500000    -0.056289309    -0.056341064      0.60972015      0.61107588     -0.22185969
       5.3400000    -0.056254317    -0.056326521      0.73159730      0.73394234     -0.31951272
       6.2300000    -0.056213471    -0.056308868      0.85343791      0.85716614     -0.43494835
       7.1200000    -0.056166924    -0.056287876      0.97523581      0.98080857     -0.56818037
       8.0100000    -0.056114851    -0.056263279       1.0969848       1.1049318     -0.71922467
       8.9000000    -0.056057454    -0.056234783       1.2186788       1.2295989     -0.88809931
       9.7900000    -0.055994955    -0.056202057       1.3403115       1.3548740      -1.0748244
       10.680000    -0.055927603    -0.056164741       1.4618765       1.4808225      -1.2794224
       11.570000    -0.055855671    -0.056122446       1.5833676       1.6075111      -1.5019177
       12.460000    -0.055779456    -0.056074753       1.7047785       1.7350082      -1.7423369
       13.350000    -0.055699280    -0.056021216       1.8261027       1.8633836      -2.0007088
       14.240000    -0.055615489    -0.055961362       1.9473337       1.9927089      -2.2770645
       15.130000    -0.055528454    -0.055894694       2.0684650       2.1230581      -2.5714370
       16.020000    -0.055438572    -0.055820693       2.1894900       2.2545068      -2.8838618
       16.910000    -0.055346263    -0.055738817       2.3104020       2.3871335      -3.2143763
       17.800000    -0.055251975    -0.055648507       2.4311944       2.5210188      -3.5630204
       18.690000    -0.055156177    -0.055549185       2.5518602       2.6562463      -3.9298359
       19.580000    -0.055059367    -0.055440258       2.6723926       2.7929027      -4.3148672
       20.470000    -0.054962065    -0.055321120       2.7927847       2.9310776      -4.7181606
       21.360000    -0.054864816    -0.055191155       2.9130292       3.0708644      -5.1397649
       22.250000    -0.054768192    -0.055049740       3.0331191       3.2123602      -5.5797309
       23.140000    -0.054672785    -0.054896244       3.1530471       3.3556659      -6.0381119
       24.030000    -0.054579215    -0.054730037       3.2728057       3.5008872      -6.5149635
       24.920000    -0.054488122    -0.054550487       3.3923875       3.6481342      -7.0103432
       25.810000    -0.054400170    -0.054356967       3.5117847       3.7975221      -7.5243113
       26.700000    -0.054316044    -0.054148855       3.6309898       3.9491718      -8.0569300
       27.590000    -0.054236453    -0.053925543       3.7499947       4.1032099      -8.6082640
       28.480000    -0.054162122    -0.053686433       3.8687915       4.2597693      -9.1783804
       29.370000    -0.054093800    -0.053430949       3.9873719       4.4189901      -9.7673484
       30.260000    -0.054032250    -0.053158533       4.1057276       4.5810194      -10.375240
       31.150000    -0.053978254    -0.052868658       4.2238501       4.7460125      -11.002128
       32.040000    -0.053932609    -0.052560823       4.3417308       4.9141335      -11.648090
       32.930000    -0.053896125    -0.052234566       4.4593607       5.0855556      -12.313204
       33.820000    -0.053869626    -0.051889462       4.5767309       5.2604622      -12.997552
       34.710000    -0.053853945    -0.051525135       4.6938322       5.4390478      -13.701216
       35.600000    -0.053849923    -0.051141258       4.8106550       5.6215186      -14.424281
       36.490000    -0.053858406    -0.050737561       4.9271897       5.8080939      -15.166837
       37.380000    -0.053880248    -0.050313836       5.0434266       5.9990068      -15.928974
       38.270000    -0.053916300    -0.049869945       5.1593555       6.1945059      -16.710783
       39.160000    -0.053967413    -0.049405824       5.2749660       6.3948562      -17.512360
       40.050000    -0.054034437    -0.048921492       5.3902476       6.6003411      -18.333801
       40.940000    -0.054118213    -0.048417059       5.5051896       6.8112635      -19.175208
       41.830000    -0.054219573    -0.047892731       5.6197807       7.0279481      -20.036680
       42.720000    -0.054339338    -0.047348819       5.7340096       7.2507434      -20.918322
       43.610000    -0.054478316    -0.046785748       5.8478646       7.4800238      -21.820240
       44.500000    -0.054637294    -0.046204067       5.9613338       7.7161921      -22.742543
       45.390000    -0.054817044    -0.045604456       6.0744049       7.9596829      -23.685340
       46.280000    -0.055018312    -0.044987737       6.1870654       8.2109652      -24.648744
       47.170000    -0.055241822    -0.044354883       6.2993022       8.4705463      -25.632870
       48.060000    -0.055488271    -0.043707033       6.4111021       8.7389760      -26.637834
       48.950000    -0.055758329    -0.043045499       6.5224515       9.0168509      -27.663753
       49.840000    -0.056052639    -0.042371778       6.6333364       9.3048201      -28.710750
       50.730000    -0.056371815    -0.041687569       6.7437425       9.6035904      -29.778945
       51.620000    -0.056716443    -0.040994782       6.8536549       9.9139339      -30.868462
       52.510000    -0.057087082    -0.040295555       6.9630586       10.236695      -31.979427
       53.400000    -0.057484271    -0.039592265       7.0719378       10.572800      -33.111967
       54.290000    -0.057908527    -0.038887549       7.1802767       10.923266      -34.266210
       55.180000    -0.058360356    -0.038184316       7.2880588       11.289215      -35.442286
       56.070000    -0.058840256    -0.037485765       7.3952672       11.671883      -36.640326
       56.960000    -0.059348731    -0.036795405       7.5018844       12.072643      -37.860462
       57.850000    -0.059886302    -0.036117073       7.6078928       12.493015      -39.102828
       58.740000    -0.060453519    -0.035454952       7.7132739       12.934694      -40.367558
       59.630000    -0.061050984    -0.034813597       7.8180090       13.399572      -41.654786
       60.520000    -0.061679370    -0.034197951       7.9220787       13.889769      -42.964648
       61.410000    -0.062339450    -0.033613374       8.0254632       14.407669      -44.297281
       62.300000    -0.063032124    -0.033065664       8.1281420       14.955959      -45.652820
       63.190000    -0.063758459    -0.032561082       8.2300944       15.537686      -47.031403
       64.080000    -0.064519729    -0.032106385       8.3312988       16.156312      -48.433165
       64.970000    -0.065317467    -0.031708846       8.4317332       16.815791      -49.858243
       65.860000    -0.066153517    -0.031376289       8.5313750       17.520661      -51.306774
       66.750000    -0.067030101    -0.031117119       8.6302012       18.276151      -52.778891
       67.640000    -0.067949895    -0.030940356       8.7281878       19.088325      -54.274731
       68.530000    -0.068916109    -0.030855664       8.8253108       19.964249      -55.794427
       69.420000    -0.069932582    -0.030873394       8.9215451       20.912213      -57.338111
       70.310000    -0.071003894    -0.031004617       9.0168653       21.942003      -58.905915
       71.200000    -0.072135478    -0.031261164       9.1112454       23.065258      -60.497968
       72.090000    -0.073333762    -0.031655667       9.2046586       24.295928      -62.114399
       72.980000    -0.074606314    -0.032201602       9.2970777       25.650884      -63.755333
       73.870000    -0.075962009    -0.032913336       9.3884749       27.150716      -65.420894
       74.760000    -0.077411214    -0.033806168       9.4788217       28.820822      -67.111203
       75.650000    -0.078965989    -0.034896385       9.5680891       30.692903      -68.826380
       76.540000    -0.080640310    -0.036201308       9.6562475       32.807042      -70.566540
       77.430000    -0.082450311    -0.037739346       9.7432668       35.214671      -72.331796
       78.320000    -0.084414547    -0.039530055       9.8291161       37.982899      -74.122260
       79.210000    -0.086554281    -0.041594193       9.9137641       41.200976      -75.938036
       80.100000    -0.088893789    -0.043953781       9.9971790       44.990242      -77.779228
       80.990000    -0.091460687    -0.046632167       10.079328       49.519979      -79.645936
       81.880000    -0.094286280    -0.049654093       10.160179       55.033688      -81.538256
       82.770000    -0.097405926    -0.053045767       10.239697       61.894761      -83.456278
       83.660000     -0.10085942    -0.056834928       10.317849       70.670642      -85.400092
       84.550000     -0.10469140    -0.061050931       10.394600       82.299430      -87.369779
       85.440000     -0.10895171    -0.065724822       10.469914       98.451597      -89.365420
       86.330000     -0.11369586    -0.070889425       10.543756       122.41802      -91.387088
       87.220000     -0.11898538    -0.076579426       10.616089       161.70376      -93.434853
       88.110000     -0.12488819    -0.082831468       10.686876       237.95046      -95.508781
       89.000000     -0.13147898    -0.089684247       10.756079       449.84388      -97.608931

Table series: Data for wavelength : 0.587562 µm.
   Y Angle (deg)       Tan Shift       Sag Shift     Real Height     Ref. Height      Distortion
  --------------  --------------  --------------  --------------  --------------  --------------
      0.00000000 -3.5106107E-005 -3.5106107E-005      0.00000000      0.00000000      0.00000000
      0.89000000 -3.1127047E-005 -3.4671641E-005      0.12193161      0.12194242 -8.8687618E-003
       1.7800000 -2.1137983E-005 -3.3351605E-005      0.24385717      0.24394371    -0.035476105
       2.6700000 -5.1934078E-006 -3.1096134E-005      0.36577065      0.36606286    -0.079825196
       3.5600000  1.6615867E-005 -2.7822286E-005      0.48766598      0.48835907     -0.14192131
       4.4500000  4.4162667E-005 -2.3414295E-005      0.60953712      0.61089190     -0.22177185
       5.3400000  7.7283408E-005 -1.7723924E-005      0.73137796      0.73372137     -0.31938633
       6.2300000  1.1577801E-004 -1.0570916E-005      0.85318243      0.85690806     -0.43477636
       7.1200000  1.5940980E-004 -1.7435507E-006      0.97494439      0.98051327     -0.56795571
       8.0100000  2.0790551E-004  9.0006946E-006       1.0966577       1.1045991     -0.71894026
       8.9000000  2.6095501E-004  2.1934387E-005       1.2183162       1.2292287     -0.88774802
       9.7900000  3.1821136E-004  3.7359271E-005       1.3399137       1.3544660      -1.0743991
       10.680000  3.7929066E-004  5.5605297E-005       1.4614439       1.4803766      -1.2789159
       11.570000  4.4377190E-004  7.7029544E-005       1.5829005       1.6070272      -1.5013228
       12.460000  5.1119690E-004  1.0201503E-004       1.7042772       1.7344858      -1.7416464
       13.350000  5.8107031E-004  1.3096944E-004       1.8255677       1.8628225      -1.9999155
       14.240000  6.5285946E-004  1.6432368E-004       1.9467654       1.9921090      -2.2761611
       15.130000  7.2599429E-004  2.0253038E-004       2.0678639       2.1224189      -2.5704162
       16.020000  7.9986748E-004  2.4606229E-004       2.1888566       2.2538281      -2.8827162
       16.910000  8.7383442E-004  2.9541047E-004       2.3097369       2.3864148      -3.2130987
       17.800000  9.4721322E-004  3.5108246E-004       2.4304981       2.5202598      -3.5616033
       18.690000  1.0192849E-003  4.1360029E-004       2.5511334       2.6554466      -3.9282720
       19.580000  1.0892937E-003  4.8349834E-004       2.6716360       2.7920618      -4.3131491
       20.470000  1.1564471E-003  5.6132111E-004       2.7919989       2.9301951      -4.7162809
       21.360000  1.2199161E-003  6.4762082E-004       2.9122151       3.0699399      -5.1377161
       22.250000  1.2788361E-003  7.4295494E-004       3.0322774       3.2113930      -5.5775058
       23.140000  1.3323070E-003  8.4788350E-004       3.1521786       3.3546556      -6.0357031
       24.030000  1.3793936E-003  9.6296627E-004       3.2719113       3.4998332      -6.5123635
       24.920000  1.4191270E-003  1.0887599E-003       3.3914681       3.6470358      -7.0075449
       25.810000  1.4505046E-003  1.2258147E-003       3.5108415       3.7963788      -7.5213073
       26.700000  1.4724919E-003  1.3746715E-003       3.6300236       3.9479828      -8.0537131
       27.590000  1.4840229E-003  1.5358582E-003       3.7490067       4.1019745      -8.6048272
       28.480000  1.4840015E-003  1.7098860E-003       3.8677827       4.2584868      -9.1747166
       29.370000  1.4713032E-003  1.8972458E-003       3.9863436       4.4176596      -9.7634506
       30.260000  1.4447762E-003  2.0984043E-003       4.1046810       4.5796401      -10.371101
       31.150000  1.4032435E-003  2.3137996E-003       4.2227865       4.7445836      -10.997742
       32.040000  1.3455044E-003  2.5438370E-003       4.3406515       4.9126540      -11.643450
       32.930000  1.2703368E-003  2.7888845E-003       4.4582673       5.0840245      -12.308304
       33.820000  1.1764996E-003  3.0492676E-003       4.5756247       5.2588784      -12.992385
       34.710000  1.0627346E-003  3.3252648E-003       4.6927147       5.4374102      -13.695776
       35.600000  9.2776948E-004  3.6171020E-003       4.8095279       5.6198261      -14.418564
       36.490000  7.7032080E-004  3.9249470E-003       4.9260547       5.8063452      -15.160836
       37.380000  5.8909649E-004  4.2489036E-003       5.0422854       5.9972006      -15.922684
       38.270000  3.8279931E-004  4.5890059E-003       5.1582098       6.1926408      -16.704199
       39.160000  1.5013011E-004  4.9452113E-003       5.2738178       6.3929309      -17.505478
       40.050000 -1.1020863E-004  5.3173944E-003       5.3890988       6.5983539      -18.326618
       40.940000 -3.9950932E-004  5.7053395E-003       5.5040421       6.8092128      -19.167718
       41.830000 -7.1905544E-004  6.1087334E-003       5.6186366       7.0258322      -20.028881
       42.720000 -1.0701175E-003  6.5271577E-003       5.7328711       7.2485604      -20.910212
       43.610000 -1.4539498E-003  6.9600803E-003       5.8467339       7.4777717      -21.811816
       44.500000 -1.8717857E-003  7.4068475E-003       5.9602132       7.7138689      -22.733802
       45.390000 -2.3248343E-003  7.8666744E-003       6.0732968       7.9572864      -23.676283
       46.280000 -2.8142767E-003  8.3386356E-003       6.1859721       8.2084930      -24.639369
       47.170000 -3.3412619E-003  8.8216553E-003       6.2982263       8.4679960      -25.623177
       48.060000 -3.9069042E-003  9.3144972E-003       6.4100463       8.7363449      -26.627825
       48.950000 -4.5122795E-003  9.8157527E-003       6.5214184       9.0141361      -27.653430
       49.840000 -5.1584230E-003     0.010323830       6.6323287       9.3020186      -28.700113
       50.730000 -5.8463271E-003     0.010836943       6.7427630       9.6006990      -29.767999
       51.620000 -6.5769404E-003     0.011353095       6.8527066       9.9109490      -30.857211
       52.510000 -7.3511670E-003     0.011870069       6.9621443       10.233613      -31.967876
       53.400000 -8.1698670E-003     0.012385413       7.0710607       10.569617      -33.100121
       54.290000 -9.0338587E-003     0.012896423       7.1794399       10.919977      -34.254077
       55.180000 -9.9439221E-003     0.013400128       7.2872654       11.285816      -35.429873
       56.070000    -0.010900804     0.013893277       7.3945206       11.668369      -36.627643
       56.960000    -0.011905224     0.014372318       7.5011880       12.069008      -37.847519
       57.850000    -0.012957888     0.014833378       7.6072499       12.489254      -39.089636
       58.740000    -0.014059495     0.015272250       7.7126881       12.930800      -40.354129
       59.630000    -0.015210758     0.015684369       7.8174838       13.395538      -41.641135
       60.520000    -0.016412421     0.016064790       7.9216179       13.885587      -42.950790
       61.410000    -0.017665281     0.016408170       8.0250704       14.403331      -44.283232
       62.300000    -0.018970220     0.016708738       8.1278212       14.951456      -45.638598
       63.190000    -0.020328235     0.016960280       8.2298494       15.533008      -47.017028
       64.080000    -0.021740481     0.017156102       8.3311336       16.151448      -48.418657
       64.970000    -0.023208314     0.017289013       8.4316519       16.810728      -49.843626
       65.860000    -0.024733347     0.017351290       8.5313818       17.515386      -51.292070
       66.750000    -0.026317514     0.017334654       8.6303002       18.270648      -52.764128
       67.640000    -0.027963137     0.017230233       8.7283835       19.082578      -54.259935
       68.530000    -0.029673014     0.017028533       8.8256075       19.958238      -55.779627
       69.420000    -0.031450508     0.016719404       8.9219474       20.905917      -57.323338
       70.310000    -0.033299656     0.016292003       9.0173778       21.935397      -58.891202
       71.200000    -0.035225287     0.015734755       9.1118728       23.058313      -60.483350
       72.090000    -0.037233159     0.015035320       9.2054058       24.288613      -62.099912
       72.980000    -0.039330110     0.014180544       9.2979498       25.643161      -63.741016
       73.870000    -0.041524224     0.013156422       9.3894769       27.142541      -65.406788
       74.760000    -0.043825020     0.011948050       9.4799590       28.812145      -67.097351
       75.650000    -0.046243661     0.010539582       9.5693671       30.683662      -68.812826
       76.540000    -0.048793180  8.9141758E-003       9.6576719       32.797164      -70.553332
       77.430000    -0.051488732  7.0539453E-003       9.7448434       35.204068      -72.318985
       78.320000    -0.054347869  4.9399064E-003       9.8308509       37.971463      -74.109897
       79.210000    -0.057390833  2.5519202E-003       9.9156635       41.188571      -75.926178
       80.100000    -0.060640883 -1.3136513E-004       9.9992495       44.976696      -77.767932
       80.990000    -0.064124636 -3.1325764E-003       10.081577       49.505070      -79.635264
       81.880000    -0.067872438 -6.4756794E-003       10.162613       55.017119      -81.528272
       82.770000    -0.071918755    -0.010186047       10.242324       61.876126      -83.447051
       83.660000    -0.076302577    -0.014290531       10.320676       70.649365      -85.391693
       84.550000    -0.081067852    -0.018817535       10.397636       82.274651      -87.362285
