Results for:	
File:	C:\Users\User\OneDrive - Massachusetts Institute of Technology\Documents\MIT\Grad School\Classes\2.156\Lens Project\Prime Lenses\US003515462_Example01P.zmx
Title:	US 3,515,462 Example 1 (Ricoh smc Pentax 17mm F4 Fish-Eye)
Date:	11/7/2025 5:35:15 PM

0 message(s) in output.
3 series table(s) in output.

Table series: Data for wavelength : 0.486133 µm.
   Y Angle (deg)       Tan Shift       Sag Shift     Real Height     Ref. Height      Distortion
  --------------  --------------  --------------  --------------  --------------  --------------
      0.00000000    -0.048572892    -0.048572892      0.00000000      0.00000000      0.00000000
      0.89000000    -0.048489901    -0.048597510      0.26068054      0.26070341 -8.7738127E-003
       1.7800000    -0.048224840    -0.048671142      0.52134964      0.52153268    -0.035097099
       2.6700000    -0.047777279    -0.048793126      0.78199584      0.78261392    -0.078975911
       3.5600000    -0.047146512    -0.048962353       1.0426076       1.0440737     -0.14042024
       4.4500000    -0.046331560    -0.049177279       1.3031733       1.3060394     -0.21944408
       5.3400000    -0.045331173    -0.049435915       1.5636813       1.5686392     -0.31606539
       6.2300000    -0.044143844    -0.049735836       1.8241196       1.8320028     -0.43030611
       7.1200000    -0.042767804    -0.050074181       2.0844761       2.0962611     -0.56219214
       8.0100000    -0.041201041    -0.050447655       2.3447386       2.3615470     -0.71175331
       8.9000000    -0.039441304    -0.050852531       2.6048946       2.6279953     -0.87902337
       9.7900000    -0.037486115    -0.051284656       2.8649312       2.8957430      -1.0640400
       10.680000    -0.035332782    -0.051739451       3.1248353       3.1649301      -1.2668447
       11.570000    -0.032978411    -0.052211921       3.3845936       3.4356991      -1.4874828
       12.460000    -0.030419924    -0.052696653       3.6441922       3.7081958      -1.7260036
       13.350000    -0.027654074    -0.053187826       3.9036168       3.9825697      -1.9824600
       14.240000    -0.024677464    -0.053679218       4.1628529       4.2589740      -2.2569087
       15.130000    -0.021486566    -0.054164209       4.4218853       4.5375664      -2.5494102
       16.020000    -0.018077741    -0.054635792       4.6806983       4.8185091      -2.8600284
       16.910000    -0.014447267    -0.055086581       4.9392760       5.1019691      -3.1888312
       17.800000    -0.010591358    -0.055508819       5.1976014       5.3881193      -3.5358896
       18.690000 -6.5061953E-003    -0.055894388       5.4556573       5.6771383      -3.9012783
       19.580000 -2.1879512E-003    -0.056234826       5.7134257       5.9692109      -4.2850756
       20.470000  2.3671770E-003    -0.056521330       5.9708881       6.2645293      -4.6873628
       21.360000  7.1629371E-003    -0.056744779       6.2280249       6.5632926      -5.1082248
       22.250000     0.012202987    -0.056895746       6.4848161       6.8657084      -5.5477494
       23.140000     0.017490860    -0.056964512       6.7412409       7.1719928      -6.0060276
       24.030000     0.023029926    -0.056941088       6.9972775       7.4823711      -6.4831537
       24.920000     0.028823350    -0.056815233       7.2529032       7.7970789      -6.9792244
       25.810000     0.034874054    -0.056576477       7.5080948       8.1163625      -7.4943396
       26.700000     0.041184667    -0.056214142       7.7628276       8.4404801      -8.0286017
       27.590000     0.047757485    -0.055717371       8.0170764       8.7697024      -8.5821156
       28.480000     0.054594417    -0.055075158       8.2708147       9.1043135      -9.1549888
       29.370000     0.061696936    -0.054276369       8.5240149       9.4446126      -9.7473310
       30.260000     0.069066026    -0.053309786       8.7766487       9.7909143      -10.359254
       31.150000     0.076702126    -0.052164134       9.0286861       10.143551      -10.990871
       32.040000     0.084605075    -0.050828127       9.2800963       10.502872      -11.642299
       32.930000     0.092774046    -0.049290505       9.5308472       10.869249      -12.313653
       33.820000      0.10120749    -0.047540078       9.7809054       11.243073      -13.005053
       34.710000      0.10990307    -0.045565779       10.030236       11.624760      -13.716618
       35.600000      0.11885759    -0.043356715       10.278803       12.014751      -14.448470
       36.490000      0.12806694    -0.040902218       10.526570       12.413514      -15.200728
       37.380000      0.13752600    -0.038191913       10.773496       12.821548      -15.973516
       38.270000      0.14722861    -0.035215777       11.019543       13.239384      -16.766955
       39.160000      0.15716745    -0.031964209       11.264667       13.667589      -17.581167
       40.050000      0.16733398    -0.028428107       11.508826       14.106767      -18.416274
       40.940000      0.17771840    -0.024598942       11.751975       14.557567      -19.272397
       41.830000      0.18830951    -0.020468845       11.994067       15.020683      -20.149655
       42.720000      0.19909469    -0.016030697       12.235054       15.496858      -21.048168
       43.610000      0.21005978    -0.011278220       12.474885       15.986894      -21.968051
       44.500000      0.22118902 -6.2060813E-003       12.713510       16.491652      -22.909421
       45.390000      0.23246497 -8.0999851E-004       12.950874       17.012059      -23.872389
       46.280000      0.24386844  4.9131489E-003       13.186924       17.549120      -24.857065
       47.170000      0.25537839     0.010965200       13.421600       18.103917      -25.863555
       48.060000      0.26697187     0.017346590       13.654846       18.677626      -26.891961
       48.950000      0.27862397     0.024056217       13.886600       19.271522      -27.942382
       49.840000      0.29030768     0.031091307       14.116799       19.886992      -29.014911
       50.730000      0.30199391     0.038447272       14.345380       20.525548      -30.109636
       51.620000      0.31365137     0.046117561       14.572276       21.188838      -31.226640
       52.510000      0.32524650     0.054093505       14.797419       21.878669      -32.365999
       53.400000      0.33674347     0.062364160       15.020739       22.597018      -33.527783
       54.290000      0.34810409     0.070916142       15.242164       23.346062      -34.712055
       55.180000      0.35928775     0.079733458       15.461621       24.128196      -35.918868
       56.070000      0.37025145     0.088797334       15.679034       24.946066      -37.148269
       56.960000      0.38094969     0.098086041       15.894326       25.802600      -38.400295
       57.850000      0.39133449      0.10757472       16.107417       26.701053      -39.674972
       58.740000      0.40135541      0.11723519       16.318228       27.645044      -40.972319
       59.630000      0.41095945      0.12703580       16.526676       28.638618      -42.292340
       60.520000      0.42009114      0.13694120       16.732677       29.686306      -43.635032
       61.410000      0.42869254      0.14691224       16.936144       30.793201      -45.000377
       62.300000      0.43670320      0.15690572       17.136993       31.965051      -46.388345
       63.190000      0.44406029      0.16687428       17.335133       33.208363      -47.798893
       64.080000      0.45069854      0.17676622       17.530476       34.530539      -49.231965
       64.970000      0.45655038      0.18652537       17.722931       35.940030      -50.687490
       65.860000      0.46154595      0.19609094       17.912406       37.446532      -52.165382
       66.750000      0.46561318      0.20539740       18.098807       39.061225      -53.665541
       67.640000      0.46867786      0.21437439       18.282043       40.797067      -55.187849
       68.530000      0.47066374      0.22294663       18.462018       42.669161      -56.732175
       69.420000      0.47149262      0.23103385       18.638638       44.695224      -58.298368
       70.310000      0.47108442      0.23855079       18.811807       46.896172      -59.886263
       71.200000      0.46935731      0.24540713       18.981430       49.296880      -61.495677
       72.090000      0.46622777      0.25150759       19.147411       51.927166      -63.126408
       72.980000      0.46161074      0.25675191       19.309656       54.823084      -64.778239
       73.870000      0.45541966      0.26103502       19.468068       58.028642      -66.450933
       74.760000      0.44756661      0.26424710       19.622553       61.598124      -68.144236
       75.650000      0.43796239      0.26627380       19.773016       65.599283      -69.857877
       76.540000      0.42651656      0.26699645       19.919365       70.117786      -71.591566
       77.430000      0.41313757      0.26629231       20.061504       75.263560      -73.344997
       78.320000      0.39773279      0.26403489       20.199344       81.180035      -75.117843
       79.210000      0.38020852      0.26009429       20.332793       88.057961      -76.909762
       80.100000      0.36047010      0.25433764       20.461760       96.156678      -78.720396
       80.990000      0.33842188      0.24662951       20.586158       105.83799      -80.549368
       81.880000      0.31396720      0.23683245       20.705899       117.62232      -82.396284
       82.770000      0.28700846      0.22480753       20.820898       132.28634      -84.260735
       83.660000      0.25744700      0.21041495       20.931069       151.04285      -86.142297
       84.550000      0.22518316      0.19351466       21.036329       175.89680      -88.040528
       85.440000      0.19011620      0.17396710       21.136597       210.41848      -89.954971
       86.330000      0.15214424      0.15163386       21.231792       261.64140      -91.885156
       87.220000      0.11116433      0.12637853       21.321835       345.60598      -93.830594
       88.110000     0.067072325     0.098067450       21.406647       508.56641      -95.790786
       89.000000     0.019763005     0.066570568       21.486151       961.44167      -97.765215

Table series: Data for wavelength : 0.587562 µm.
   Y Angle (deg)       Tan Shift       Sag Shift     Real Height     Ref. Height      Distortion
  --------------  --------------  --------------  --------------  --------------  --------------
      0.00000000     0.021535816     0.021535816      0.00000000      0.00000000      0.00000000
      0.89000000     0.021618883     0.021510879      0.26110507      0.26112800 -8.7830700E-003
       1.7800000     0.021886366     0.021436290      0.52219853      0.52238207    -0.035134283
       2.6700000     0.022338748     0.021312721      0.78326877      0.78388851    -0.079059637
       3.5600000     0.022976820     0.021141287       1.0443041       1.0457741     -0.14056913
       4.4500000     0.023801681     0.020923552       1.3052927       1.3081664     -0.21967675
       5.3400000     0.024814731     0.020661520       1.5662227       1.5711939     -0.31640045
       6.2300000     0.026017671     0.020357642       1.8270820       1.8349864     -0.43076219
       7.1200000     0.027412492     0.020014806       2.0878584       2.0996751     -0.56278784
       8.0100000     0.029001470     0.019636341       2.3485395       2.3653931     -0.71250725
       8.9000000     0.030787154     0.019226008       2.6091125       2.6322753     -0.87995416
       9.7900000     0.032772364     0.018788004       2.8695644       2.9004591      -1.0651662
       10.680000     0.034960169     0.018326950       3.1298821       3.1700846      -1.2681850
       11.570000     0.037353884     0.017847895       3.3900517       3.4412945      -1.4890557
       12.460000     0.039957054     0.017356303       3.6500595       3.7142350      -1.7278277
       13.350000     0.042773433     0.016858055       3.9098908       3.9890558      -1.9845539
       14.240000     0.045806979     0.016359437       4.1695310       4.2659103      -2.2592909
       15.130000     0.049061824     0.015867135       4.4289647       4.5449565      -2.5520992
       16.020000     0.052542265     0.015388230       4.6881760       4.8263566      -2.8630428
       16.910000     0.056252738     0.014930185       4.9471486       5.1102783      -3.1921892
       17.800000     0.060197797     0.014500838       5.2058656       5.3968946      -3.5396097
       18.690000     0.064382090     0.014108393       5.4643094       5.6863842      -3.9053789
       19.580000     0.068810335     0.013761404       5.7224618       5.9789326      -4.2895749
       20.470000     0.073487294     0.013468767       5.9803039       6.2747319      -4.6922791
       21.360000     0.078417740     0.013239706       6.2378162       6.5739818      -5.1135760
       22.250000     0.083606432     0.013083752       6.4949783       6.8768901      -5.5535537
       23.140000     0.089058079     0.013010734       6.7517691       7.1836733      -6.0123029
       24.030000     0.094777309     0.013030755       7.0081665       7.4945571      -6.4899175
       24.920000      0.10076863     0.013154175       7.2641477       7.8097774      -6.9864945
       25.810000      0.10703640     0.013391590       7.5196891       8.1295811      -7.5021334
       26.700000      0.11358477     0.013753804       7.7747657       8.4542265      -8.0369363
       27.590000      0.12041767     0.014251810       8.0293521       8.7839850      -8.5910081
       28.480000      0.12753874     0.014896751       8.2834214       9.1191411      -9.1644559
       29.370000      0.13495130     0.015699903       8.5369459       9.4599943      -9.7573892
       30.260000      0.14265828     0.016672634       8.7898966       9.8068601      -10.369919
       31.150000      0.15066221     0.017826369       9.0422436       10.160071      -11.002160
       32.040000      0.15896514     0.019172551       9.2939555       10.519977      -11.654225
       32.930000      0.16756858     0.020722603       9.5449998       10.886951      -12.326233
       33.820000      0.17647347     0.022487877       9.7953430       11.261384      -13.018301
       34.710000      0.18568009     0.024479611       10.044950       11.643693      -13.730548
       35.600000      0.19518803     0.026708873       10.293784       12.034319      -14.463095
       36.490000      0.20499613     0.029186504       10.541807       12.433731      -15.216061
       37.380000      0.21510237     0.031923063       10.788981       12.842430      -15.989569
       38.270000      0.22550387     0.034928757       11.035264       13.260946      -16.783739
       39.160000      0.23619677     0.038213371       11.280614       13.689848      -17.598693
       40.050000      0.24717617     0.041786200       11.524987       14.129742      -18.434551
       40.940000      0.25843610     0.045655963       11.768339       14.581276      -19.291433
       41.830000      0.26996939     0.049830724       12.010621       15.045146      -20.169459
       42.720000      0.28176765     0.054317797       12.251786       15.522097      -21.068745
       43.610000      0.29382113     0.059123655       12.491782       16.012931      -21.989407
       44.500000      0.30611873     0.064253830       12.730559       16.518511      -22.931559
       45.390000      0.31864784     0.069712801       12.968061       17.039766      -23.895311
       46.280000      0.33139432     0.075503883       13.204233       17.577701      -24.880772
       47.170000      0.34434239     0.081629111       13.439018       18.133401      -25.888046
       48.060000      0.35747459     0.088089113       13.672357       18.708045      -26.917232
       48.950000      0.37077165     0.094882976       13.904188       19.302908      -27.968429
       49.840000      0.38421246      0.10200811       14.134449       19.919381      -29.041726
       50.730000      0.39777395      0.10946012       14.363074       20.558976      -30.137210
       51.620000      0.41143108      0.11723262       14.589998       21.223347      -31.254962
       52.510000      0.42515668      0.12531711       14.815151       21.914301      -32.395055
       53.400000      0.43892146      0.13370281       15.038464       22.633820      -33.557556
       54.290000      0.45269388      0.14237649       15.259863       23.384084      -34.742524
       55.180000      0.46644010      0.15132230       15.479276       24.167492      -35.950011
       56.070000      0.48012393      0.16052161       15.696626       24.986693      -37.180059
       56.960000      0.49370674      0.16995279       15.911836       25.844623      -38.432703
       57.850000      0.50714741      0.17959111       16.124826       26.744539      -39.707966
       58.740000      0.52040226      0.18940848       16.335517       27.690067      -41.005861
       59.630000      0.53342503      0.19937332       16.543824       28.685259      -42.326392
       60.520000      0.54616676      0.20945036       16.749665       29.734653      -43.669548
       61.410000      0.55857580      0.21960047       16.952953       30.843352      -45.035308
       62.300000      0.57059776      0.22978050       17.153602       32.017110      -46.423640
       63.190000      0.58217540      0.23994308       17.351524       33.262447      -47.834494
       64.080000      0.59324867      0.25003652       17.546629       34.586776      -49.267811
       64.970000      0.60375464      0.26000459       17.738826       35.998563      -50.723515
       65.860000      0.61362743      0.26978646       17.928025       37.507519      -52.201516
       66.750000      0.62279824      0.27931651       18.114133       39.124841      -53.701708
       67.640000      0.63119527      0.28852429       18.297057       40.863510      -55.223971
       68.530000      0.63874371      0.29733437       18.476704       42.738653      -56.768165
       69.420000      0.64536573      0.30566635       18.652979       44.768016      -58.334139
       70.310000      0.65098041      0.31343477       18.825789       46.972548      -59.921721
       71.200000      0.65550378      0.32054910       18.995038       49.377166      -61.530724
       72.090000      0.65884874      0.32691383       19.160633       52.011736      -63.160943
       72.980000      0.66092509      0.33242843       19.322480       54.912371      -64.812155
       73.870000      0.66163948      0.33698753       19.480484       58.123149      -66.484121
       74.760000      0.66089540      0.34048098       19.634553       61.698445      -68.176583
       75.650000      0.65859320      0.34279407       19.784594       65.706120      -69.889267
       76.540000      0.65463004      0.34380773       19.930515       70.231982      -71.621882
       77.430000      0.64889991      0.34339879       20.072225       75.386136      -73.374116
       78.320000      0.64129360      0.34144026       20.209634       81.312247      -75.145645
       79.210000      0.63169875      0.33780174       20.342655       88.201375      -76.936125
       80.100000      0.61999981      0.33234979       20.471198       96.313281      -78.745197
       80.990000      0.60607809      0.32494836       20.595180       106.01036      -80.572484
       81.880000      0.58981179      0.31545933       20.714514       117.81388      -82.417595
       82.770000      0.57107600      0.30374305       20.829118       132.50179      -84.280124
       83.660000      0.54974282      0.28965892       20.938910       151.28884      -86.159647
       84.550000      0.52568139      0.27306603       21.043810       176.18328      -88.055728
