Results for:	
File:	C:\Users\User\OneDrive - Massachusetts Institute of Technology\Documents\MIT\Grad School\Classes\2.156\Lens Project\Prime Lenses\DE02818394_Example01P.zmx
Title:	DE 2818394 Example 1 (Rodenstock Geronar 210mm f6.8)
Date:	11/7/2025 5:22:54 PM

0 message(s) in output.
3 series table(s) in output.

Table series: Data for wavelength : 0.486133 µm.
   Y Angle (deg)       Tan Shift       Sag Shift     Real Height     Ref. Height      Distortion
  --------------  --------------  --------------  --------------  --------------  --------------
      0.00000000     -0.20574241     -0.20574241      0.00000000      0.00000000      0.00000000
      0.26513119     -0.20581929     -0.20614426      0.97263726      0.97263687  4.0425982E-005
      0.53026238     -0.20602339     -0.20734932       1.9453180       1.9453154  1.3498386E-004
      0.79539357     -0.20635188     -0.20935617       2.9180858       2.9180772  2.9245400E-004
       1.0605248     -0.20680001     -0.21216243       3.8909840       3.8909641  5.1264687E-004
       1.3256560     -0.20736104     -0.21576478       4.8640563       4.8640176  7.9530068E-004
       1.5907871     -0.20802626     -0.22015891       5.8373461       5.8372795  1.1400671E-003
       1.8559183     -0.20878501     -0.22533958       6.8108970       6.8107917  1.5465325E-003
       2.1210495     -0.20962462     -0.23130058       7.7847526       7.7845958  2.0142037E-003
       2.3861807     -0.21053045     -0.23803470       8.7589564       8.7587337  2.5425117E-003
       2.6513119     -0.21148586     -0.24553379       9.7335522       9.7332475  3.1308112E-003
       2.9164431     -0.21247219     -0.25378868       10.708584       10.708179  3.7783810E-003
       3.1815743     -0.21346877     -0.26278921       11.684094       11.683570  4.4844233E-003
       3.4467055     -0.21445290     -0.27252425       12.660128       12.659463  5.2480646E-003
       3.7118367     -0.21539982     -0.28298159       13.636728       13.635901  6.0683547E-003
       3.9769679     -0.21628271     -0.29414805       14.613939       14.612924  6.9442673E-003
       4.2420991     -0.21707267     -0.30600937       15.591805       15.590577  7.8746995E-003
       4.5072302     -0.21773873     -0.31855025       16.570369       16.568901  8.8584725E-003
       4.7723614     -0.21824778     -0.33175434       17.549675       17.547939  9.8943306E-003
       5.0374926     -0.21856458     -0.34560416       18.529768       18.527733     0.010980942
       5.3026238     -0.21865177     -0.36008115       19.510692       19.508328     0.012116900
       5.5677550     -0.21846978     -0.37516565       20.492490       20.489765     0.013300719
       5.8328862     -0.21797689     -0.39083683       21.475208       21.472088     0.014530840
       6.0980174     -0.21712916     -0.40707271       22.458889       22.455340     0.015805628
       6.3631486     -0.21588042     -0.42385012       23.443578       23.439564     0.017123372
       6.6282798     -0.21418226     -0.44114470       24.429319       24.424805     0.018482286
       6.8934110     -0.21198402     -0.45893085       25.416158       25.411106     0.019880510
       7.1585422     -0.20923272     -0.47718171       26.404139       26.398512     0.021316110
       7.4236733     -0.20587314     -0.49586916       27.393306       27.387065     0.022787077
       7.6888045     -0.20184770     -0.51496375       28.383705       28.376812     0.024291334
       7.9539357     -0.19709652     -0.53443469       29.375381       29.367796     0.025826727
       8.2190669     -0.19155737     -0.55424983       30.368378       30.360062     0.027391035
       8.4841981     -0.18516568     -0.57437563       31.362742       31.353656     0.028981968
       8.7493293     -0.17785454     -0.59477708       32.358520       32.348622     0.030597166
       9.0144605     -0.16955466     -0.61541771       33.355755       33.345006     0.032234204
       9.2795917     -0.16019442     -0.63625957       34.354494       34.342855     0.033890593
       9.5447229     -0.14969987     -0.65726312       35.354782       35.342213     0.035563783
       9.8098541     -0.13799471     -0.67838725       36.356666       36.343128     0.037251163
       10.074985     -0.12500033     -0.69958924       37.360192       37.345646     0.038950067
       10.340116     -0.11063588     -0.72082464       38.365405       38.349813     0.040657772
       10.605248    -0.094818221     -0.74204735       39.372354       39.355678     0.042371510
       10.870379    -0.077462062     -0.76320944       40.381083       40.363287     0.044088462
       11.135510    -0.058479964     -0.78426119       41.391640       41.372689     0.045805773
       11.400641    -0.037782444     -0.80515102       42.404072       42.383931     0.047520546
       11.665772    -0.015278047     -0.82582540       43.418427       43.397062     0.049229856
       11.930904  9.1265316E-003     -0.84622884       44.434751       44.412131     0.050930755
       12.196035     0.035526325     -0.86630380       45.453092       45.429187     0.052620274
       12.461166     0.064017943     -0.88599065       46.473499       46.448279     0.054295436
       12.726297     0.094699390     -0.90522758       47.496019       47.469458     0.055953264
       12.991428      0.12766986     -0.92395059       48.520701       48.492773     0.057590787
       13.256560      0.16302950     -0.94209335       49.547593       49.518276     0.059205055
       13.521691      0.20087912     -0.95958718       50.576745       50.546017     0.060793148
       13.786822      0.24131989     -0.97636097       51.608207       51.576048     0.062352192
       14.051953      0.28445293     -0.99234109       52.642026       52.608420     0.063879371
       14.317084      0.33037894      -1.0074513       53.678255       53.643187     0.065371943
       14.582216      0.37919767      -1.0216128       54.716943       54.680401     0.066827261
       14.847347      0.43100736      -1.0347439       55.758140       55.720115     0.068242789
       15.112478      0.48590414      -1.0467601       56.801899       56.762384     0.069616129
       15.377609      0.54398122      -1.0575741       57.848271       57.807260     0.070945039
       15.642740      0.60532816      -1.0670954       58.897309       58.854799     0.072227466
       15.907871      0.67002982      -1.0752306       59.949064       59.905057     0.073461574
       16.173003      0.73816532      -1.0818830       61.003591       60.958088     0.074645774
       16.438134      0.80980682      -1.0869525       62.060943       62.013950     0.075778767
       16.703265      0.88501805      -1.0903359       63.121176       63.072699     0.076859579
       16.968396      0.96385275      -1.0919262       64.184344       64.134392     0.077887612
       17.233527       1.0463528      -1.0916130       65.250505       65.199087     0.078862688
       17.498659       1.1325462      -1.0892822       66.319715       66.266843     0.079785111
       17.763790       1.2224446      -1.0848159       67.392032       67.337720     0.080655725
       18.028921       1.3160407      -1.0780923       68.467515       68.411776     0.081475984
       18.294052       1.4133049      -1.0689856       69.546226       69.489073     0.082248032
       18.559183       1.5141821      -1.0573659       70.628226       70.569670     0.082974783
       18.824315       1.6185873      -1.0430992       71.713577       71.653631     0.083660023
       19.089446       1.7264016      -1.0260473       72.802344       72.741017     0.084308508
       19.354577       1.8374661      -1.0060675       73.894594       73.831892     0.084926093
       19.619708       1.9515764     -0.98301276       74.990395       74.926318     0.085519858
       19.884839       2.0684753     -0.95673168       76.089817       76.024361     0.086098261
       20.149971       2.1878454     -0.92706824       77.192932       77.126086     0.086671304
       20.415102       2.3092992     -0.89386190       78.299816       78.231559     0.087250719
       20.680233       2.4323693     -0.85694759       79.410547       79.340846     0.087850183
       20.945364       2.5564958     -0.81615574       80.525205       80.454015     0.088485555
       21.210495       2.6810126     -0.77131229       81.643876       81.571135     0.089175144
       21.475626       2.8051306     -0.72223881       82.766647       82.692274     0.089940017
       21.740758       2.9279203     -0.66875274       83.893613       83.817503     0.090804336
       22.005889       3.0482890     -0.61066743       85.024870       84.946892     0.091795759
       22.271020       3.1649557     -0.54779255       86.160522       86.080513     0.092945887
       22.536151       3.2764224     -0.47993443       87.300679       87.218440     0.094290767
       22.801282       3.3809394     -0.40689655       88.445457       88.360744     0.095871483
       23.066414       3.4764659     -0.32848018       89.594982       89.507502     0.097734825
       23.331545       3.5606225     -0.24448515       90.749387       90.658788     0.099934062
       23.596676       3.6306372     -0.15471090       91.908817       91.814679      0.10252984
       23.861807       3.6832801    -0.058957680       93.073426       92.975253      0.10559121
       24.126938       3.7147876     0.042971867       94.243386       94.140587      0.10919685
       24.392070       3.7207718      0.15127073       95.418879       95.310762      0.11343649
       24.657201       3.6961139      0.26612514       96.600109       96.485858      0.11841252
       24.922332       3.6348367      0.38771149       97.787299       97.665957      0.12424202
       25.187463       3.5299518      0.51619260       98.980695       98.851142      0.13105906
       25.452594       3.3732779      0.65171300       100.18057       100.04150      0.13901748
       25.717726       3.1552207      0.79439297       101.38723       101.23711      0.14829422
       25.982857       2.8645081      0.94432113       102.60103       102.43806      0.15909341
       26.247988       2.4878680       1.1015450       103.82234       103.64444      0.17165123
       26.513119       2.0096378       1.2660590       105.05162       104.85634      0.18624199

Table series: Data for wavelength : 0.587562 µm.
   Y Angle (deg)       Tan Shift       Sag Shift     Real Height     Ref. Height      Distortion
  --------------  --------------  --------------  --------------  --------------  --------------
      0.00000000  4.7271758E-003  4.7271758E-003      0.00000000      0.00000000      0.00000000
      0.26513119  4.6196267E-003  4.3030465E-003      0.97247867      0.97247835  3.2365960E-005
      0.53026238  4.3129790E-003  3.0311313E-003       1.9450009       1.9449984  1.2942707E-004
      0.79539357  3.8101024E-003  9.1284928E-004       2.9176102       2.9176017  2.9106636E-004
       1.0605248  3.1158665E-003 -2.0494328E-003       3.8903501       3.8903299  5.1708995E-004
       1.3256560  2.2371451E-003 -5.8523986E-003       4.8632642       4.8632249  8.0722632E-004
       1.5907871  1.1828190E-003    -0.010491778       5.8363960       5.8363282  1.1611264E-003
       1.8559183 -3.6214511E-005    -0.015962345       6.8097892       6.8096817  1.5783633E-003
       2.1210495 -1.4070353E-003    -0.022257910       7.7834873       7.7833271  2.0584322E-003
       2.3861807 -2.9146907E-003    -0.029371316       8.7575341       8.7573063  2.6007504E-003
       2.6513119 -4.5421842E-003    -0.037294429       9.7319731       9.7316612  3.2046571E-003
       2.9164431 -6.2704625E-003    -0.046018135       10.706848       10.706434  3.8694135E-003
       3.1815743 -8.0784039E-003    -0.055532326       11.682203       11.681666  4.5942023E-003
       3.4467055 -9.9428010E-003    -0.065825892       12.658081       12.657400  5.3781277E-003
       3.7118367    -0.011838345    -0.076886712       13.634526       13.633678  6.2202153E-003
       3.9769679    -0.013737608    -0.088701639       14.611583       14.610543  7.1194122E-003
       4.2420991    -0.015611025     -0.10125649       15.589295       15.588036  8.0745861E-003
       4.5072302    -0.017426873     -0.11453603       16.567706       16.566201  9.0845263E-003
       4.7723614    -0.019151249     -0.12852395       17.546859       17.545079     0.010147942
       5.0374926    -0.020748050     -0.14320288       18.526800       18.524714     0.011263465
       5.3026238    -0.022178948     -0.15855432       19.507573       19.505148     0.012429645
       5.5677550    -0.023403368     -0.17455869       20.489221       20.486425     0.013644956
       5.8328862    -0.024378461     -0.19119523       21.471789       21.468588     0.014907788
       6.0980174    -0.025059080     -0.20844206       22.455321       22.451680     0.016216455
       6.3631486    -0.025397757     -0.22627610       23.439862       23.435744     0.017569192
       6.6282798    -0.025344671     -0.24467306       24.425456       24.420825     0.018964152
       6.8934110    -0.024847628     -0.26360745       25.412148       25.406965     0.020399411
       7.1585422    -0.023852031     -0.28305251       26.399983       26.394209     0.021872966
       7.4236733    -0.022300859     -0.30298018       27.389005       27.382602     0.023382736
       7.6888045    -0.020134635     -0.32336113       28.379259       28.372187     0.024926562
       7.9539357    -0.017291409     -0.34416468       29.370792       29.363010     0.026502206
       8.2190669    -0.013706733     -0.36535875       30.363646       30.355114     0.028107356
       8.4841981 -9.3136363E-003     -0.38690990       31.357869       31.348546     0.029739622
       8.7493293 -4.0426145E-003     -0.40878322       32.353505       32.343350     0.031396541
       9.0144605  2.1783972E-003     -0.43094235       33.350599       33.339572     0.033075575
       9.2795917  9.4240273E-003     -0.45334940       34.349198       34.337258     0.034774116
       9.5447229     0.017771485     -0.47596494       35.349347       35.336453     0.036489483
       9.8098541     0.027300560     -0.49874795       36.351093       36.337205     0.038218927
       10.074985     0.038093628     -0.52165577       37.354480       37.339559     0.039959634
       10.340116     0.050235637     -0.54464406       38.359556       38.343563     0.041708725
       10.605248     0.063814101     -0.56766675       39.366367       39.349264     0.043463260
       10.870379     0.078919072     -0.59067599       40.374959       40.356709     0.045220239
       11.135510     0.095643117     -0.61362213       41.385379       41.365946     0.046976611
       11.400641      0.11408126     -0.63645361       42.397674       42.377024     0.048729274
       11.665772      0.13433096     -0.65911694       43.411891       43.389990     0.050475077
       11.930904      0.15649199     -0.68155664       44.428077       44.404893     0.052210833
       12.196035      0.18066641     -0.70371519       45.446281       45.421783     0.053933318
       12.461166      0.20695840     -0.72553294       46.466549       46.440710     0.055639280
       12.726297      0.23547419     -0.74694805       47.488929       47.461722     0.057325446
       12.991428      0.26632189     -0.76789646       48.513471       48.484870     0.058988532
       13.256560      0.29961130     -0.78831176       49.540221       49.510206     0.060625248
       13.521691      0.33545369     -0.80812517       50.569230       50.537779     0.062232312
       13.786822      0.37396159     -0.82726544       51.600546       51.567642     0.063806459
       14.051953      0.41524848     -0.84565878       52.634218       52.599847     0.065344455
       14.317084      0.45942847     -0.86322876       53.670296       53.634445     0.066843110
       14.582216      0.50661587     -0.87989624       54.708830       54.671490     0.068299294
       14.847347      0.55692481     -0.89557930       55.749871       55.711035     0.069709954
       15.112478      0.61046868     -0.91019313       56.793469       56.753133     0.071072133
       15.377609      0.66735954     -0.92364992       57.839675       57.797839     0.072382991
       15.642740      0.72770745     -0.93585880       58.888541       58.845208     0.073639830
       15.907871      0.79161969     -0.94672573       59.940120       59.895294     0.074840119
       16.173003      0.85919985     -0.95615339       60.994463       60.948154     0.075981523
       16.438134      0.93054684     -0.96404106       62.051625       62.003843     0.077061935
       16.703265       1.0057537     -0.97028457       63.111658       63.062420     0.078079515
       16.968396       1.0849061     -0.97477611       64.174619       64.123940     0.079032723
       17.233527       1.1680813     -0.97740418       65.240560       65.188462     0.079920371
       17.498659       1.2553456     -0.97805347       66.309540       66.256044     0.080741668
       17.763790       1.3467531     -0.97660470       67.381615       67.326746     0.081496273
       18.028921       1.4423430     -0.97293456       68.456842       68.400627     0.082184360
       18.294052       1.5421371     -0.96691555       69.535280       69.477748     0.082806683
       18.559183       1.6461366     -0.95841588       70.616990       70.558170     0.083364652
       18.824315       1.7543190     -0.94729932       71.702033       71.641954     0.083860419
       19.089446       1.8666340     -0.93342520       72.790471       72.729163     0.084296965
       19.354577       1.9829989     -0.91664813       73.882368       73.819859     0.084678215
       19.619708       2.1032935     -0.89681800       74.977791       74.914107     0.085009146
       19.884839       2.2273542     -0.87377986       76.076807       76.011971     0.085295926
       20.149971       2.3549672     -0.84737382       77.179484       77.113517     0.085546054
       20.415102       2.4858605     -0.81743497       78.285896       78.218809     0.085768529
       20.680233       2.6196950     -0.78379332       79.396117       79.327916     0.085974036
       20.945364       2.7560542     -0.74627373       80.510224       80.440903     0.086175154
       21.210495       2.8944319     -0.70469591       81.628296       81.557841     0.086386590
       21.475626       3.0342185     -0.65887438       82.750418       82.678798     0.086625452
       21.740758       3.1746850     -0.60861865       83.876678       83.803843     0.086911537
       22.005889       3.3149641     -0.55373310       85.007167       84.933048     0.087267687
       22.271020       3.4540286     -0.49401726       86.141982       86.066485     0.087720175
       22.536151       3.5906664     -0.42926595       87.281226       87.204226     0.088299144
       22.801282       3.7234508     -0.35926964       88.425007       88.346344     0.089039116
       23.066414       3.8507064     -0.28381478       89.573440       89.492915     0.089979575
       23.331545       3.9704687     -0.20268432       90.726650       90.644013     0.091165632
       23.596676       4.0804370     -0.11565844       91.884767       91.799716     0.092648795
       23.861807       4.1779187    -0.022515368       93.047936       92.960100     0.094487863
       24.126938       4.2597641     0.076967527       94.216311       94.125245     0.096749955
       24.392070       4.3222888      0.18301231       95.390059       95.295229     0.099511718
       24.657201       4.3611817      0.29583875       96.569363       96.470134      0.10286074
       24.922332       4.3713960      0.41566210       97.754425       97.650040      0.10689721
       25.187463       4.3470187      0.54269033       98.945466       98.835032      0.11173587
