Results for:	
File:	C:\Users\User\OneDrive - Massachusetts Institute of Technology\Documents\MIT\Grad School\Classes\2.156\Lens Project\Prime Lenses\US07633690-1.ZMX
Title:	U.S. Patent 7633690 - Samsung
Date:	11/7/2025 5:48:40 PM

0 message(s) in output.
3 series table(s) in output.

Table series: Data for wavelength : 0.486133 µm.
   Y Angle (deg)       Tan Shift       Sag Shift     Real Height     Ref. Height      Distortion
  --------------  --------------  --------------  --------------  --------------  --------------
      0.00000000    -0.016151186    -0.016151186      0.00000000      0.00000000      0.00000000
      0.32000000    -0.016069287    -0.016132244     0.020270327     0.020270304  1.1547960E-004
      0.64000000    -0.015829828    -0.016075766     0.040542056     0.040541872  4.5362274E-004
      0.96000000    -0.015438602    -0.015982778     0.060816572     0.060815970  9.8973452E-004
       1.2800000    -0.014905058    -0.015854974     0.081095228     0.081093863  1.6833322E-003
       1.6000000    -0.014242068    -0.015694679      0.10137933      0.10137682  2.4791353E-003
       1.9200000    -0.013465590    -0.015504805      0.12167013      0.12166610  3.3084174E-003
       2.2400000    -0.012594269    -0.015288800      0.14196879      0.14196299  4.0906816E-003
       2.5600000    -0.011648959    -0.015050583      0.16227642      0.16226874  4.7356184E-003
       2.8800000    -0.010652198    -0.014794468      0.18259403      0.18258464  5.1452938E-003
       3.2000000 -9.6276289E-003    -0.014525091      0.20292254      0.20291195  5.2165145E-003
       3.5200000 -8.5994091E-003    -0.014247325      0.22326278      0.22325197  4.8433108E-003
       3.8400000 -7.5916013E-003    -0.013966191      0.24361551      0.24360596  3.9194762E-003
       4.1600000 -6.6275755E-003    -0.013686775      0.26398141      0.26397523  2.3411056E-003
       4.4800000 -5.7294350E-003    -0.013414139      0.28436107      0.28436104  9.0719800E-006
       4.8000000 -4.9174836E-003    -0.013153235      0.30475506      0.30476471 -3.1686130E-003
       5.1200000 -4.2097482E-003    -0.012908828      0.32516387      0.32518753 -7.2746054E-003
       5.4400000 -3.6215707E-003    -0.012685421      0.34558800      0.34563079    -0.012380247
       5.7600000 -3.1652791E-003    -0.012487185      0.36602793      0.36609582    -0.018543834
       6.0800000 -2.8499462E-003    -0.012317901      0.38648414      0.38658391    -0.025809166
       6.4000000 -2.6812399E-003    -0.012180913      0.40695715      0.40709640    -0.034204402
       6.7200000 -2.6613681E-003    -0.012079079      0.42744755      0.42763460    -0.043741241
       7.0400000 -2.7891150E-003    -0.012014750      0.44795597      0.44819986    -0.054414423
       7.3600000 -3.0599657E-003    -0.011989743      0.46848315      0.46879350    -0.066201572
       7.6800000 -3.4663112E-003    -0.012005335      0.48902992      0.48941687    -0.079063359
       8.0000000 -3.9977250E-003    -0.012062262      0.50959726      0.51007134    -0.092943983
       8.3200000 -4.6412997E-003    -0.012160728      0.53018625      0.53075825     -0.10777194
       8.6400000 -5.3820322E-003    -0.012300427      0.55079813      0.55147899     -0.12346110
       8.9600000 -6.2032444E-003    -0.012480568      0.57143430      0.57223492     -0.13991196
       9.2800000 -7.0870269E-003    -0.012699908      0.59209632      0.59302745     -0.15701321
       9.6000000 -8.0146932E-003    -0.012956799      0.61278589      0.61385795     -0.17464343
       9.9200000 -8.9672330E-003    -0.013249228      0.63350491      0.63472785     -0.19267296
       10.240000 -9.9257543E-003    -0.013574868      0.65425539      0.65563856     -0.21096587
       10.560000    -0.010871905    -0.013931135      0.67503953      0.67659151     -0.22938210
       10.880000    -0.011788266    -0.014315239      0.69585966      0.69758814     -0.24777951
       11.200000    -0.012658712    -0.014724239      0.71671822      0.71862989     -0.26601614
       11.520000    -0.013468726    -0.015155103      0.73761779      0.73971824     -0.28395230
       11.840000    -0.014205681    -0.015604753      0.75856103      0.76085465     -0.30145274
       12.160000    -0.014859064    -0.016070125      0.77955068      0.78204061     -0.31838865
       12.480000    -0.015420664    -0.016548211      0.80058954      0.80327763     -0.33463969
       12.800000    -0.015884699    -0.017036104      0.82168044      0.82456722     -0.35009583
       13.120000    -0.016247904    -0.017531040      0.84282621      0.84591090     -0.36465906
       13.440000    -0.016509563    -0.018030426      0.86402967      0.86731023     -0.37824497
       13.760000    -0.016671501    -0.018531877      0.88529359      0.88876675     -0.39078420
       14.080000    -0.016738016    -0.019033230      0.90662068      0.91028205     -0.40222359
       14.400000    -0.016715775    -0.019532566      0.92801354      0.93185771     -0.41252725
       14.720000    -0.016613665    -0.020028218      0.94947466      0.95349534     -0.42167739
       15.040000    -0.016442591    -0.020518778      0.97100638      0.97519656     -0.42967491
       15.360000    -0.016215245    -0.021003090      0.99261087      0.99696301     -0.43653976
       15.680000    -0.015945832    -0.021480246       1.0142901       1.0187964     -0.44231114
       16.000000    -0.015649752    -0.021949572       1.0360459       1.0406983     -0.44704736
       16.320000    -0.015343269    -0.022410608       1.0578797       1.0626704     -0.45082556
       16.640000    -0.015043133    -0.022863082       1.0797928       1.0847146     -0.45374111
       16.960000    -0.014766194    -0.023306888       1.1017863       1.1068325     -0.45590685
       17.280000    -0.014528994    -0.023742049       1.1238611       1.1290258     -0.45745194
       17.600000    -0.014347349    -0.024168683       1.1460175       1.1512964     -0.45852065
       17.920000    -0.014235935    -0.024586965       1.1682559       1.1736461     -0.45927078
       18.240000    -0.014207877    -0.024997090       1.1905762       1.1960766     -0.45987183
       18.560000    -0.014274356    -0.025399229       1.2129782       1.2185899     -0.46050304
       18.880000    -0.014444240    -0.025793490       1.2354615       1.2411877     -0.46135109
       19.200000    -0.014723758    -0.026179879       1.2580253       1.2638721     -0.46260762
       19.520000    -0.015116210    -0.026558259       1.2806688       1.2866448     -0.46446656
       19.840000    -0.015621745    -0.026928319       1.3033909       1.3095079     -0.46712127
       20.160000    -0.016237191    -0.027289534       1.3261906       1.3324634     -0.47076142
       20.480000    -0.016955968    -0.027641142       1.3490667       1.3555131     -0.47556989
       20.800000    -0.017768077    -0.027982123       1.3720180       1.3786593     -0.48171939
       21.120000    -0.018660180    -0.028311174       1.3950434       1.4019038     -0.48936913
       21.440000    -0.019615770    -0.028626710       1.4181417       1.4252489     -0.49866144
       21.760000    -0.020615433    -0.028926854       1.4413123       1.4486966     -0.50971837
       22.080000    -0.021637220    -0.029209448       1.4645546       1.4722491     -0.52263849
       22.400000    -0.022657113    -0.029472075       1.4878681       1.4959085     -0.53749382
       22.720000    -0.023649599    -0.029712080       1.5112532       1.5196772     -0.55432705
       23.040000    -0.024588351    -0.029926619       1.5347103       1.5435572     -0.57314914
       23.360000    -0.025447020    -0.030112708       1.5582407       1.5675510     -0.59393743
       23.680000    -0.026200143    -0.030267292       1.5818461       1.5916608     -0.61663432
       24.000000    -0.026824169    -0.030387330       1.6055288       1.6158890     -0.64114678
       24.320000    -0.027298615    -0.030469896       1.6292919       1.6402380     -0.66734671
       24.640000    -0.027607350    -0.030512292       1.6531393       1.6647103     -0.69507237
       24.960000    -0.027740025    -0.030512184       1.6770754       1.6893082     -0.72413099
       25.280000    -0.027693634    -0.030467762       1.7011054       1.7140344     -0.75430281
       25.600000    -0.027474216    -0.030377912       1.7252350       1.7388913     -0.78534649
       25.920000    -0.027098657    -0.030242415       1.7494706       1.7638817     -0.81700623
       26.240000    -0.026596561    -0.030062168       1.7738190       1.7890080     -0.84902049
       26.560000    -0.026012085    -0.029839428       1.7982870       1.8142731     -0.88113237
       26.880000    -0.025405607    -0.029578078       1.8228816       1.8396797     -0.91310149
       27.200000    -0.024854990    -0.029283905       1.8476094       1.8652306     -0.94471711
       27.520000    -0.024456116    -0.028964900       1.8724766       1.8909285     -0.97581186
       27.840000    -0.024322206    -0.028631553       1.8974884       1.9167764      -1.0062751
       28.160000    -0.024581299    -0.028297136       1.9226489       1.9427773      -1.0360649
       28.480000    -0.025371097    -0.027977948       1.9479608       1.9689341      -1.0652150
       28.800000    -0.026830208    -0.027693477       1.9734252       1.9952499      -1.0938362
       29.120000    -0.029084837    -0.027466433       1.9990419       2.0217278      -1.1221043
       29.440000    -0.032230061    -0.027322579       2.0248100       2.0483710      -1.1502315
       29.760000    -0.036305409    -0.027290246       2.0507285       2.0751827      -1.1784110
       30.080000    -0.041265543    -0.027399425       2.0767988       2.1021661      -1.2067256
       30.400000    -0.046948902    -0.027680280       2.1030274       2.1293247      -1.2350093
       30.720000    -0.053050606    -0.028160956       2.1294308       2.1566619      -1.2626500
       31.040000    -0.059111509    -0.028864567       2.1560418       2.1841812      -1.2883274
       31.360000    -0.064544348    -0.029805441       2.1829171       2.2118860      -1.3096916
       31.680000    -0.068732558    -0.030984962       2.2101475       2.2397801      -1.3230137
       32.000000    -0.071260384    -0.032387905       2.2378659       2.2678672      -1.3228858

Table series: Data for wavelength : 0.587562 µm.
   Y Angle (deg)       Tan Shift       Sag Shift     Real Height     Ref. Height      Distortion
  --------------  --------------  --------------  --------------  --------------  --------------
      0.00000000     0.010532360     0.010532360      0.00000000      0.00000000      0.00000000
      0.32000000     0.010611055     0.010549973     0.020300681     0.020300670  5.8114264E-005
      0.64000000     0.010840903     0.010602459     0.040602697     0.040602606  2.2437307E-004
      0.96000000     0.011216005     0.010688771     0.060907364     0.060907075  4.7471547E-004
       1.2800000     0.011726741     0.010807182     0.081215971     0.081215345  7.6970958E-004
       1.6000000     0.012360017     0.010955323      0.10152976      0.10152869  1.0555347E-003
       1.9200000     0.013099602     0.011130227      0.12184991      0.12184836  1.2653212E-003
       2.2400000     0.013926551     0.011328383      0.14217753      0.14217565  1.3208114E-003
       2.5600000     0.014819693     0.011545803      0.16251367      0.16251183  1.1342994E-003
       2.8800000     0.015756176     0.011778096      0.18285927      0.18285816  6.1079817E-004
       3.2000000     0.016712059     0.012020553      0.20321521      0.20321592 -3.4961914E-004
       3.5200000     0.017662922     0.012268224      0.22358228      0.22358641 -1.8493633E-003
       3.8400000     0.018584494     0.012516016      0.24396116      0.24397090 -3.9908180E-003
       4.1600000     0.019453261     0.012758776      0.26435250      0.26437067 -6.8738334E-003
       4.4800000     0.020247059     0.012991384      0.28475686      0.28478703    -0.010593283
       4.8000000     0.020945614     0.013208837      0.30517476      0.30522126    -0.015236736
       5.1200000     0.021531030     0.013406335      0.32560667      0.32567467    -0.020882302
       5.4400000     0.021988201     0.013579352      0.34605304      0.34614856    -0.027596684
       5.7600000     0.022305141     0.013723708      0.36651433      0.36664425    -0.035433482
       6.0800000     0.022473225     0.013835629      0.38699101      0.38716303    -0.044431779
       6.4000000     0.022487335     0.013911800      0.40748358      0.40770625    -0.054615034
       6.7200000     0.022345907     0.013949401      0.42799260      0.42827522    -0.065990289
       7.0400000     0.022050884     0.013946143      0.44851870      0.44887128    -0.078547709
       7.3600000     0.021607583     0.013900286      0.46906262      0.46949577    -0.092260449
       7.6800000     0.021024475     0.013810646      0.48962517      0.49015005     -0.10708484
       8.0000000     0.020312893     0.013676596      0.51020732      0.51083545     -0.12296092
       8.3200000     0.019486686     0.013498057      0.53081017      0.53155336     -0.13981316
       8.6400000     0.018561815     0.013275470      0.55143497      0.55230513     -0.15755161
       8.9600000     0.017555922     0.013009777      0.57208310      0.57309216     -0.17607317
       9.2800000     0.016487870     0.012702378      0.59275613      0.59391583     -0.19526313
       9.6000000     0.015377284     0.012355091      0.61345579      0.61477754     -0.21499687
       9.9200000     0.014244079     0.011970103      0.63418396      0.63567871     -0.23514175
       10.240000     0.013108019     0.011549919      0.65494269      0.65662074     -0.25555909
       10.560000     0.011988279     0.011097309      0.67573417      0.67760508     -0.27610624
       10.880000     0.010903057     0.010615247      0.69656074      0.69863316     -0.29663872
       11.200000  9.8692028E-003     0.010106861      0.71742488      0.71970643     -0.31701236
       11.520000  8.9019013E-003  9.5753683E-003      0.73832915      0.74082637     -0.33708545
       11.840000  8.0143957E-003  9.0240287E-003      0.75927625      0.76199444     -0.35672083
       12.160000  7.2177577E-003  8.4560873E-003      0.78026893      0.78321215     -0.37578794
       12.480000  6.5207076E-003  7.8747278E-003      0.80131000      0.80448098     -0.39416476
       12.800000  5.9294840E-003  7.2830276E-003      0.82240230      0.82580246     -0.41173968
       13.120000  5.4477628E-003  6.6839178E-003      0.84354870      0.84717812     -0.42841312
       13.440000  5.0766265E-003  6.0801488E-003      0.86475201      0.86860950     -0.44409917
       13.760000  4.8145819E-003  5.4742618E-003      0.88601505      0.89009817     -0.45872690
       14.080000  4.6576257E-003  4.8685656E-003      0.90734053      0.91164570     -0.47224159
       14.400000  4.5993571E-003  4.2651206E-003      0.92873108      0.93325368     -0.48460574
       14.720000  4.6311351E-003  3.6657283E-003      0.95018921      0.95492372     -0.49579980
       15.040000  4.7422796E-003  3.0719280E-003      0.97171730      0.97665745     -0.50582282
       15.360000  4.9203128E-003  2.4849987E-003      0.99331753      0.99845651     -0.51469277
       15.680000  5.1512401E-003  1.9059680E-003       1.0149919       1.0203226     -0.52244666
       16.000000  5.4198662E-003  1.3356259E-003       1.0367423       1.0422573     -0.52914045
       16.320000  5.7101420E-003  7.7454483E-004       1.0585702       1.0642624     -0.53484868
       16.640000  6.0055405E-003  2.2310397E-004       1.0804770       1.0863396     -0.53966388
       16.960000  6.2894530E-003 -3.1848175E-004       1.1024637       1.1084906     -0.54369576
       17.280000  6.5456023E-003 -8.5012875E-004       1.1245313       1.1307172     -0.54707014
       17.600000  6.7584650E-003 -1.3718487E-003       1.1466803       1.1530211     -0.54992758
       17.920000  6.9136939E-003 -1.8837101E-003       1.1689111       1.1754043     -0.55242189
       18.240000  6.9985348E-003 -2.3857975E-003       1.1912236       1.1978684     -0.55471828
       18.560000  7.0022249E-003 -2.8781704E-003       1.2136178       1.2204154     -0.55699135
       18.880000  6.9163667E-003 -3.3608215E-003       1.2360932       1.2430471     -0.55942285
       19.200000  6.7352647E-003 -3.8336358E-003       1.2586493       1.2657654     -0.56219918
       19.520000  6.4562161E-003 -4.2963511E-003       1.2812853       1.2885723     -0.56550871
       19.840000  6.0797463E-003 -4.7485213E-003       1.3040003       1.3114696     -0.56953896
       20.160000  5.6097790E-003 -5.1894826E-003       1.3267933       1.3344595     -0.57447354
       20.480000  5.0537333E-003 -5.6183248E-003       1.3496634       1.3575438     -0.58048899
       20.800000  4.4225395E-003 -6.0338671E-003       1.3726093       1.3807246     -0.58775153
       21.120000  3.7305682E-003 -6.4346405E-003       1.3956303       1.4040040     -0.59641372
       21.440000  2.9954671E-003 -6.8188780E-003       1.4187253       1.4273840     -0.60661110
       21.760000  2.2379003E-003 -7.1845118E-003       1.4418938       1.4508668     -0.61845895
       22.080000  1.4811880E-003 -7.5291809E-003       1.4651353       1.4744546     -0.63204905
       22.400000  7.5084279E-004 -7.8502481E-003       1.4884498       1.4981495     -0.64744669
       22.720000  7.4000479E-005 -8.1448282E-003       1.5118375       1.5219537     -0.66468799
       23.040000 -5.2125902E-004 -8.4098286E-003       1.5352992       1.5458695     -0.68377752
       23.360000 -1.0067030E-003 -8.6420023E-003       1.5588364       1.5698993     -0.70468651
       23.680000 -1.3548559E-003 -8.8380157E-003       1.5824509       1.5940452     -0.72735156
       24.000000 -1.5400332E-003 -8.9945308E-003       1.6061453       1.6183097     -0.75167419
       24.320000 -1.5395084E-003 -9.1083045E-003       1.6299229       1.6426952     -0.77752128
       24.640000 -1.3348194E-003 -9.1763040E-003       1.6537876       1.6672041     -0.80472646
       24.960000 -9.1322386E-004 -9.1958417E-003       1.6777443       1.6918389     -0.83309277
       25.280000 -2.6930514E-004 -9.1647296E-003       1.7017982       1.7166021     -0.86239663
       25.600000  5.9327525E-004 -9.0814538E-003       1.7259553       1.7414963     -0.89239326
       25.920000  1.6598985E-003 -8.9453721E-003       1.7502221       1.7665240     -0.92282369
       26.240000  2.9030286E-003 -8.7569320E-003       1.7746057       1.7916881     -0.95342338
       26.560000  4.2802568E-003 -8.5179134E-003       1.7991131       1.8169910     -0.98393247
       26.880000  5.7324959E-003 -8.2316896E-003       1.8237514       1.8424357      -1.0141076
       27.200000  7.1825504E-003 -7.9035090E-003       1.8485276       1.8680248      -1.0437347
       27.520000  8.5344071E-003 -7.5407867E-003       1.8734479       1.8937612      -1.0726428
       27.840000  9.6737285E-003 -7.1533992E-003       1.8985180       1.9196479      -1.1007177
       28.160000     0.010470211 -6.7539646E-003       1.9237420       1.9456877      -1.1279132
       28.480000     0.010782646 -6.3580830E-003       1.9491230       1.9718837      -1.1542596
       28.800000     0.010467696 -5.9845006E-003       1.9746624       1.9982389      -1.1798655
       29.120000  9.3934626E-003 -5.6551435E-003       2.0003600       2.0247565      -1.2049075
       29.440000  7.4587984E-003 -5.3949497E-003       2.0262150       2.0514396      -1.2296044
       29.760000  4.6188724E-003 -5.2313999E-003       2.0522262       2.0782914      -1.2541665
       30.080000  9.1640296E-004 -5.1936294E-003       2.0783944       2.1053153      -1.2787109
       30.400000 -3.4839407E-003 -5.3109792E-003       2.1047251       2.1325146      -1.3031322
       30.720000 -8.2637629E-003 -5.6108501E-003       2.1312327       2.1598927      -1.3269192
