Results for:	
File:	C:\Users\User\OneDrive - Massachusetts Institute of Technology\Documents\MIT\Grad School\Classes\2.156\Lens Project\Prime Lenses\US03737214-1.zmx
Title:	
Date:	11/7/2025 5:45:35 PM

0 message(s) in output.
3 series table(s) in output.

Table series: Data for wavelength : 0.486133 µm.
   Y Angle (deg)       Tan Shift       Sag Shift     Real Height     Ref. Height      Distortion
  --------------  --------------  --------------  --------------  --------------  --------------
      0.00000000      0.11629038      0.11629038      0.00000000      0.00000000      0.00000000
      0.89000000      0.11628466      0.11638845      0.14004225      0.14005410 -8.4639194E-003
       1.7800000      0.11633759      0.11668265      0.28008095      0.28017582    -0.033861750
       2.6700000      0.11644915      0.11717305      0.42011255      0.42043290    -0.076194694
       3.5600000      0.11661929      0.11785969      0.56013351      0.56089334     -0.13546760
       4.4500000      0.11684798      0.11874267      0.70014029      0.70162555     -0.21168726
       5.3400000      0.11713513      0.11982212      0.84012937      0.84269844     -0.30486242
       6.2300000      0.11748069      0.12109817      0.98009724      0.98418163     -0.41500382
       7.1200000      0.11788457      0.12257099       1.1200404       1.1261455     -0.54212415
       8.0100000      0.11834665      0.12424078       1.2599553       1.2686614     -0.68623812
       8.9000000      0.11886682      0.12610776       1.3998386       1.4118017     -0.84736247
       9.7900000      0.11944495      0.12817218       1.5396868       1.5556402      -1.0255160
       10.680000      0.12008089      0.13043429       1.6794965       1.7002518      -1.2207195
       11.570000      0.12077448      0.13289440       1.8192643       1.8457133      -1.4329960
       12.460000      0.12152552      0.13555281       1.9589868       1.9921030      -1.6623705
       13.350000      0.12233383      0.13840987       2.0986608       2.1395011      -1.9088703
       14.240000      0.12319919      0.14146594       2.2382828       2.2879900      -2.1725250
       15.130000      0.12412135      0.14472138       2.3778498       2.4376543      -2.4533661
       16.020000      0.12510005      0.14817662       2.5173583       2.5885813      -2.7514277
       16.910000      0.12613503      0.15183205       2.6568054       2.7408606      -3.0667462
       17.800000      0.12722597      0.15568812       2.7961878       2.8945852      -3.3993602
       18.690000      0.12837255      0.15974528       2.9355024       3.0498508      -3.7493111
       19.580000      0.12957441      0.16400401       3.0747463       3.2067570      -4.1166423
       20.470000      0.13083118      0.16846480       3.2139164       3.3654068      -4.5014003
       21.360000      0.13214245      0.17312813       3.3530097       3.5259073      -4.9036337
       22.250000      0.13350778      0.17799454       3.4920235       3.6883700      -5.3233943
       23.140000      0.13492671      0.18306454       3.6309549       3.8529109      -5.7607363
       24.030000      0.13639874      0.18833867       3.7698010       4.0196512      -6.2157168
       24.920000      0.13792333      0.19381748       3.9085593       4.1887173      -6.6883959
       25.810000      0.13949990      0.19950152       4.0472271       4.3602417      -7.1788367
       26.700000      0.14112786      0.20539135       4.1858017       4.5343629      -7.6871053
       27.590000      0.14280655      0.21148754       4.3242807       4.7112265      -8.2132709
       28.480000      0.14453528      0.21779066       4.4626616       4.8909850      -8.7574061
       29.370000      0.14631331      0.22430128       4.6009421       5.0737992      -9.3195869
       30.260000      0.14813986      0.23101996       4.7391198       5.2598381      -9.8998926
       31.150000      0.15001409      0.23794728       4.8771925       5.4492801      -10.498406
       32.040000      0.15193511      0.24508380       5.0151581       5.6423133      -11.115214
       32.930000      0.15390199      0.25243007       5.1530145       5.8391369      -11.750407
       33.820000      0.15591372      0.25998665       5.2907597       6.0399613      -12.404079
       34.710000      0.15796925      0.26775408       5.4283918       6.2450098      -13.076328
       35.600000      0.16006744      0.27573288       5.5659090       6.4545193      -13.767258
       36.490000      0.16220712      0.28392357       5.7033094       6.6687414      -14.476974
       37.380000      0.16438700      0.29232663       5.8405915       6.8879439      -15.205589
       38.270000      0.16660577      0.30094254       5.9777537       7.1124122      -15.953217
       39.160000      0.16886200      0.30977176       6.1147943       7.3424506      -16.719980
       40.050000      0.17115419      0.31881470       6.2517122       7.5783844      -17.506002
       40.940000      0.17348078      0.32807177       6.3885059       7.8205614      -18.311416
       41.830000      0.17584007      0.33754333       6.5251742       8.0693545      -19.136355
       42.720000      0.17823030      0.34722970       6.6617160       8.3251638      -19.980962
       43.610000      0.18064961      0.35713118       6.7981302       8.5884191      -20.845384
       44.500000      0.18309602      0.36724801       6.9344158       8.8595830      -21.729772
       45.390000      0.18556745      0.37758040       7.0705721       9.1391544      -22.634285
       46.280000      0.18806171      0.38812850       7.2065983       9.4276719      -23.559089
       47.170000      0.19057647      0.39889240       7.3424936       9.7257179      -24.504354
       48.060000      0.19310930      0.40987214       7.4782575       10.033924      -25.470257
       48.950000      0.19565760      0.42106771       7.6138895       10.352974      -26.456985
       49.840000      0.19821868      0.43247900       7.7493892       10.683615      -27.464727
       50.730000      0.20078965      0.44410586       7.8847564       11.026657      -28.493685
       51.620000      0.20336752      0.45594804       8.0199906       11.382988      -29.544063
       52.510000      0.20594909      0.46800520       8.1550920       11.753576      -30.616077
       53.400000      0.20853102      0.48027694       8.2900604       12.139485      -31.709950
       54.290000      0.21110979      0.49276274       8.4248959       12.541883      -32.825912
       55.180000      0.21368168      0.50546198       8.5595986       12.962058      -33.964203
       56.070000      0.21624280      0.51837395       8.6941687       13.401431      -35.125074
       56.960000      0.21878903      0.53149778       8.8286066       13.861576      -36.308781
       57.850000      0.22131604      0.54483252       8.9629127       14.344239      -37.515593
       58.740000      0.22381929      0.55837707       9.0970873       14.851366      -38.745788
       59.630000      0.22629399      0.57213019       9.2311312       15.385130      -39.999656
       60.520000      0.22873512      0.58609048       9.3650448       15.947965      -41.277494
       61.410000      0.23113737      0.60025639       9.4988289       16.542607      -42.579615
       62.300000      0.23349518      0.61462619       9.6324841       17.172144      -43.906340
       63.190000      0.23580270      0.62919799       9.7660114       17.840072      -45.258004
       64.080000      0.23805378      0.64396969       9.8994115       18.550366      -46.634953
       64.970000      0.24024195      0.65893898       10.032685       19.307567      -48.037548
       65.860000      0.24236043      0.67410335       10.165834       20.116885      -49.466161
       66.750000      0.24440207      0.68946004       10.298858       20.984324      -50.921181
       67.640000      0.24635937      0.70500606       10.431760       21.916846      -52.403009
       68.530000      0.24822445      0.72073815       10.564538       22.922566      -53.912060
       69.420000      0.24998903      0.73665277       10.697196       24.011000      -55.448769
       70.310000      0.25164441      0.75274610       10.829733       25.193385      -57.013582
       71.200000      0.25318146      0.76901398       10.962152       26.483084      -58.606966
       72.090000      0.25459060      0.78545196       11.094452       27.896117      -60.229403
       72.980000      0.25586174      0.80205518       11.226635       29.451851      -61.881393
       73.870000      0.25698432      0.81881846       11.358702       31.173928      -63.563455
       74.760000      0.25794724      0.83573619       11.490654       33.091512      -65.276129
       75.650000      0.25873886      0.85280234       11.622491       35.241000      -67.019973
       76.540000      0.25934694      0.87001043       11.754215       37.668413      -68.795567
       77.430000      0.25975868      0.88735352       11.885825       40.432806      -70.603512
       78.320000      0.25996062      0.90482415       12.017322       43.611233      -72.444433
       79.210000      0.25993866      0.92241430       12.148707       47.306166      -74.318977
       80.100000      0.25967800      0.94011543       12.279980       51.656928      -76.227815
       80.990000      0.25916316      0.95791835       12.411141       56.857886      -78.171645
       81.880000      0.25837789      0.97581323       12.542189       63.188619      -80.151190
       82.770000      0.25730518      0.99378959       12.673124       71.066372      -82.167200
       83.660000      0.25592720       1.0118362       12.803944       81.142669      -84.220454
       84.550000      0.25422532       1.0299410       12.934650       94.494618      -86.311760
       85.440000      0.25218001       1.0480913       13.065239       113.04023      -88.441956
       86.330000      0.24977088       1.0662733       13.195710       140.55800      -90.611912
       87.220000      0.24697659       1.0844724       13.326059       185.66514      -92.822530
       88.110000      0.24377485       1.1026730       13.456285       273.21013      -95.074749
       89.000000      0.24014240       1.1208584       13.586384       516.50207      -97.369539

Table series: Data for wavelength : 0.587562 µm.
   Y Angle (deg)       Tan Shift       Sag Shift     Real Height     Ref. Height      Distortion
  --------------  --------------  --------------  --------------  --------------  --------------
      0.00000000      0.12878074      0.12878074      0.00000000      0.00000000      0.00000000
      0.89000000      0.12877675      0.12888006      0.14027824      0.14029012 -8.4718259E-003
       1.7800000      0.12883935      0.12917802      0.28055287      0.28064797    -0.033888260
       2.6700000      0.12896852      0.12967467      0.42082028      0.42114141    -0.076252165
       3.5600000      0.12916421      0.13037007      0.56107688      0.56183855     -0.13556832
       4.4500000      0.12942637      0.13126432      0.70131907      0.70280792     -0.21184342
       5.3400000      0.12975492      0.13235754      0.84154327      0.84411855     -0.30508610
       6.2300000      0.13014977      0.13364988      0.98174590      0.98584016     -0.41530692
       7.1200000      0.13061083      0.13514151       1.1219234       1.1280433     -0.54251842
       8.0100000      0.13113795      0.13683264       1.2620723       1.2707993     -0.68673511
       8.9000000      0.13173101      0.13872349       1.4021890       1.4141809     -0.84797347
       9.7900000      0.13238985      0.14081431       1.5422700       1.5582617      -1.0262521
       10.680000      0.13311429      0.14310538       1.6823119       1.7031171      -1.2215914
       11.570000      0.13390414      0.14559700       1.8223113       1.8488237      -1.4340142
       12.460000      0.13475919      0.14828949       1.9622647       1.9954600      -1.6635452
       13.350000      0.13567919      0.15118320       2.1021687       2.1431065      -1.9102112
       14.240000      0.13666390      0.15427851       2.2420200       2.2918457      -2.1740414
       15.130000      0.13771303      0.15757579       2.3818154       2.4417623      -2.4550671
       16.020000      0.13882629      0.16107547       2.5215515       2.5929435      -2.7533219
       16.910000      0.14000335      0.16477797       2.6612251       2.7454795      -3.0688416
       17.800000      0.14124385      0.16868375       2.8008331       2.8994631      -3.4016645
       18.690000      0.14254743      0.17279328       2.9403723       3.0549904      -3.7518313
       19.580000      0.14391367      0.17710705       3.0798397       3.2121610      -4.1193851
       20.470000      0.14534214      0.18162555       3.2192323       3.3710782      -4.5043718
       21.360000      0.14683237      0.18634930       3.3585470       3.5318492      -4.9068394
       22.250000      0.14838387      0.19127885       3.4977810       3.6945856      -5.3268391
       23.140000      0.14999610      0.19641472       3.6369314       3.8594038      -5.7644245
       24.030000      0.15166850      0.20175749       3.7759954       4.0264251      -6.2196523
       24.920000      0.15340045      0.20730771       3.9149704       4.1957761      -6.6925817
       25.810000      0.15519131      0.21306595       4.0538536       4.3675895      -7.1832752
       26.700000      0.15704041      0.21903281       4.1926424       4.5420042      -7.6917983
       27.590000      0.15894699      0.22520887       4.3313344       4.7191658      -8.2182196
       28.480000      0.16091030      0.23159472       4.4699270       4.8992273      -8.7626109
       29.370000      0.16292949      0.23819095       4.6084180       5.0823495      -9.3250475
       30.260000      0.16500371      0.24499816       4.7468050       5.2687019      -9.9056081
       31.150000      0.16713202      0.25201694       4.8850857       5.4584632      -10.504375
       32.040000      0.16931343      0.25924788       5.0232581       5.6518217      -11.121433
       32.930000      0.17154690      0.26669156       5.1613201       5.8489770      -11.756874
       33.820000      0.17383134      0.27434857       5.2992697       6.0501398      -12.410790
       34.710000      0.17616556      0.28221946       5.4371050       6.2555339      -13.083278
       35.600000      0.17854833      0.29030479       5.5748242       6.4653964      -13.774441
       36.490000      0.18097834      0.29860511       5.7124256       6.6799795      -14.484385
       37.380000      0.18345421      0.30712092       5.8499075       6.8995514      -15.213220
       38.270000      0.18597447      0.31585276       5.9872684       7.1243980      -15.961062
       39.160000      0.18853758      0.32480107       6.1245069       7.3548240      -16.728029
       40.050000      0.19114191      0.33396634       6.2616216       7.5911554      -17.514248
       40.940000      0.19378573      0.34334898       6.3986113       7.8337405      -18.319847
       41.830000      0.19646723      0.35294938       6.5354747       8.0829530      -19.144961
       42.720000      0.19918448      0.36276792       6.6722109       8.3391933      -19.989732
       43.610000      0.20193547      0.37280492       6.8088188       8.6028922      -20.854306
       44.500000      0.20471805      0.38306064       6.9452975       8.8745131      -21.738833
       45.390000      0.20752998      0.39353534       7.0816463       9.1545557      -22.643473
       46.280000      0.21036889      0.40422921       7.2178646       9.4435593      -23.568389
       47.170000      0.21323228      0.41514235       7.3539516       9.7421076      -24.513751
       48.060000      0.21611751      0.42627487       7.4899070       10.050833      -25.479737
       48.950000      0.21902181      0.43762676       7.6257304       10.370421      -26.466531
       49.840000      0.22194227      0.44919797       7.7614214       10.701619      -27.474324
       50.730000      0.22487580      0.46098836       7.8969800       11.045239      -28.503315
       51.620000      0.22781917      0.47299774       8.0324059       11.402170      -29.553710
       52.510000      0.23076898      0.48522581       8.1676993       11.773383      -30.625723
       53.400000      0.23372164      0.49767218       8.3028602       12.159942      -31.719576
       54.290000      0.23667338      0.51033639       8.4378888       12.563019      -32.835500
       55.180000      0.23962023      0.52321784       8.5727855       12.983902      -33.973736
       56.070000      0.24255801      0.53631585       8.7075505       13.424015      -35.134531
       56.960000      0.24548233      0.54962961       8.8421845       13.884935      -36.318143
       57.850000      0.24838858      0.56315818       8.9766880       14.368412      -37.524842
       58.740000      0.25127190      0.57690049       9.1110616       14.876394      -38.754904
       59.630000      0.25412718      0.59085534       9.2453060       15.411057      -40.008619
       60.520000      0.25694906      0.60502137       9.3794222       15.974841      -41.286286
       61.410000      0.25973188      0.61939704       9.5134109       16.570485      -42.588216
       62.300000      0.26246972      0.63398067       9.6472731       17.201082      -43.914732
       63.190000      0.26515633      0.64877037       9.7810100       17.870136      -45.266168
       64.080000      0.26778517      0.66376406       9.9146225       18.581627      -46.642872
       64.970000      0.27034933      0.67895948       10.048112       19.340104      -48.045204
       65.860000      0.27284158      0.69435411       10.181479       20.150786      -49.473537
       66.750000      0.27525430      0.70994522       10.314726       21.019687      -50.928261
       67.640000      0.27757950      0.72572982       10.447853       21.953781      -52.409777
       68.530000      0.27980877      0.74170465       10.580862       22.961195      -53.918504
       69.420000      0.28193329      0.75786620       10.713755       24.051463      -55.454874
       70.310000      0.28394377      0.77421060       10.846531       25.235840      -57.019337
       71.200000      0.28583046      0.79073373       10.979194       26.527713      -58.612361
       72.090000      0.28758314      0.80743107       11.111744       27.943127      -60.234428
       72.980000      0.28919104      0.82429779       11.244183       29.501483      -61.886042
       73.870000      0.29064287      0.84132863       11.376511       31.226462      -63.567723
       74.760000      0.29192676      0.85851795       11.508731       33.147278      -65.280012
       75.650000      0.29303026      0.87585969       11.640843       35.300388      -67.023471
       76.540000      0.29394028      0.89334729       11.772847       37.731891      -68.798682
       77.430000      0.29464311      0.91097374       11.904747       40.500943      -70.606248
       78.320000      0.29512431      0.92873148       12.036541       43.684726      -72.446797
       79.210000      0.29536877      0.94661241       12.168231       47.385886      -74.320980
       80.100000      0.29536061      0.96460784       12.299817       51.743980      -76.229472
       80.990000      0.29508318      0.98270847       12.431300       56.953702      -78.172972
       81.880000      0.29451902       1.0009043       12.562680       63.295104      -80.152209
       82.770000      0.29364982       1.0191847       12.693957       71.186132      -82.167936
       83.660000      0.29245638       1.0375382       12.825129       81.279410      -84.220937
       84.550000      0.29091859       1.0559526       12.956197       94.653860      -86.312025
       85.440000      0.28901539       1.0744147       13.087159       113.23072      -88.442042
