Results for:	
File:	C:\Users\User\OneDrive - Massachusetts Institute of Technology\Documents\MIT\Grad School\Classes\2.156\Lens Project\Prime Lenses\US02126126-1.zmx
Title:	
Date:	11/7/2025 5:40:53 PM

0 message(s) in output.
3 series table(s) in output.

Table series: Data for wavelength : 0.486133 µm.
   Y Angle (deg)       Tan Shift       Sag Shift     Real Height     Ref. Height      Distortion
  --------------  --------------  --------------  --------------  --------------  --------------
      0.00000000     0.017302691     0.017302691      0.00000000      0.00000000      0.00000000
      0.80000000     0.015621022     0.016011051       1.3854509       1.3855530 -7.3653801E-003
       1.6000000     0.010613101     0.012140188       2.7708297       2.7716464    -0.029464165
       2.4000000  2.2911097E-003  5.7022688E-003       4.1560640       4.1588214    -0.066304265
       3.2000000 -9.3246510E-003 -3.2824466E-003       5.5410806       5.5476211     -0.11789885
       4.0000000    -0.024205810    -0.014785632       6.9258055       6.9385910     -0.18426632
       4.8000000    -0.042315991    -0.028770930       8.3101634       8.3322798     -0.26543027
       5.6000000    -0.063610898    -0.045194003       9.6940774       9.7292408     -0.36141943
       6.4000000    -0.088038415    -0.064002591       11.077469       11.130032     -0.47226765
       7.2000000     -0.11553873    -0.085136582       12.460256       12.535219     -0.59801377
       8.0000000     -0.14604449     -0.10852809       13.842357       13.945371     -0.73870157
       8.8000000     -0.17948094     -0.13410157       15.223683       15.361070     -0.89437971
       9.6000000     -0.21576614     -0.16177387       16.604147       16.782902      -1.0651016
       10.400000     -0.25481112     -0.19145443       17.983654       18.211466      -1.2509251
       11.200000     -0.29652016     -0.22304533       19.362108       19.647371      -1.4519130
       12.000000     -0.34079102     -0.25644149       20.739408       21.091238      -1.6681320
       12.800000     -0.38751521     -0.29153082       22.115450       22.543702      -1.8996532
       13.600000     -0.43657826     -0.32819437       23.490122       24.005410      -2.1465518
       14.400000     -0.48786010     -0.36630652       24.863310       25.477028      -2.4089069
       15.200000     -0.54123534     -0.40573520       26.234895       26.959236      -2.6868012
       16.000000     -0.59657367     -0.44634211       27.604751       28.452733      -2.9803209
       16.800000     -0.65374027     -0.48798290       28.972746       29.958239      -3.2895554
       17.600000     -0.71259619     -0.53050750       30.338743       31.476492      -3.6145974
       18.400000     -0.77299881     -0.57376032       31.702599       33.008254      -3.9555422
       19.200000     -0.83480233     -0.61758056       33.064164       34.554314      -4.3124875
       20.000000     -0.89785825     -0.66180252       34.423280       36.115483      -4.6855337
       20.800000     -0.96201589     -0.70625590       35.779784       37.692601      -5.0747828
       21.600000      -1.0271230     -0.75076613       37.133505       39.286540      -5.4803387
       22.400000      -1.0930261     -0.79515479       38.484264       40.898201      -5.9023065
       23.200000      -1.1595716     -0.83923989       39.831876       42.528521      -6.3407926
       24.000000      -1.2266057     -0.88283637       41.176146       44.178472      -6.7959038
       24.800000      -1.2939758     -0.92575642       42.516873       45.849068      -7.2677475
       25.600000      -1.3615304     -0.96780999       43.853848       47.541360      -7.7564310
       26.400000      -1.4291206      -1.0088052       45.186851       49.256449      -8.2620611
       27.200000      -1.4966001      -1.0485489       46.515658       50.995481      -8.7847439
       28.000000      -1.5638264      -1.0868470       47.840034       52.759652      -9.3245844
       28.800000      -1.6306612      -1.1235053       49.159735       54.550216      -9.8816857
       29.600000      -1.6969715      -1.1583295       50.474510       56.368482      -10.456149
       30.400000      -1.7626300      -1.1911264       51.784099       58.215826      -11.048073
       31.200000      -1.8275162      -1.2217040       53.088234       60.093688      -11.657554
       32.000000      -1.8915168      -1.2498723       54.386638       62.003582      -12.284684
       32.800000      -1.9545269      -1.2754439       55.679026       63.947099      -12.929551
       33.600000      -2.0164503      -1.2982345       56.965104       65.925911      -13.592239
       34.400000      -2.0772005      -1.3180637       58.244570       67.941784      -14.272829
       35.200000      -2.1367014      -1.3347556       59.517115       69.996577      -14.971393
       36.000000      -2.1948877      -1.3481395       60.782420       72.092253      -15.688001
       36.800000      -2.2517061      -1.3580506       62.040161       74.230886      -16.422713
       37.600000      -2.3071151      -1.3643304       63.290004       76.414672      -17.175587
       38.400000      -2.3610864      -1.3668280       64.531609       78.645934      -17.946669
       39.200000      -2.4136048      -1.3654001       65.764629       80.927137      -18.735999
       40.000000      -2.4646688      -1.3599122       66.988711       83.260897      -19.543611
       40.800000      -2.5142909      -1.3502391       68.203495       85.649995      -20.369528
       41.600000      -2.5624982      -1.3362657       69.408614       88.097386      -21.213764
       42.400000      -2.6093318      -1.3178874       70.603697       90.606221      -22.076325
       43.200000      -2.6548475      -1.2950113       71.788369       93.179861      -22.957206
       44.000000      -2.6991158      -1.2675564       72.962247       95.821892      -23.856391
       44.800000      -2.7422210      -1.2354542       74.124946       98.536149      -24.773856
       45.600000      -2.7842618      -1.1986498       75.276078       101.32674      -25.709562
       46.400000      -2.8253500      -1.1571020       76.415250       104.19806      -26.663464
       47.200000      -2.8656106      -1.1107842       77.542068       107.15484      -27.635499
       48.000000      -2.9051806      -1.0596846       78.656135       110.20216      -28.625598
       48.800000      -2.9442085      -1.0038071       79.757053       113.34549      -29.633676
       49.600000      -2.9828527     -0.94317113       80.844423       116.59071      -30.659637
       50.400000      -3.0212810     -0.87781274       81.917845       119.94420      -31.703373
       51.200000      -3.0596684     -0.80778440       82.976921       123.41284      -32.764760
       52.000000      -3.0981965     -0.73315553       84.021252       127.00409      -33.843667
       52.800000      -3.1370510     -0.65401262       85.050443       130.72605      -34.939944
       53.600000      -3.1764203     -0.57045938       86.064097       134.58751      -36.053431
       54.400000      -3.2164938     -0.48261686       87.061826       138.59807      -37.183956
       55.200000      -3.2574591     -0.39062340       88.043239       142.76819      -38.331332
       56.000000      -3.2995007     -0.29463457       89.007952       147.10930      -39.495359
       56.800000      -3.3427970     -0.19482298       89.955587       151.63395      -40.675825
       57.600000      -3.3875185    -0.091378110       90.885769       156.35590      -41.872506
       58.400000      -3.4338253     0.015494101       91.798129       161.29033      -43.085163
       59.200000      -3.4818644      0.12557162       92.692304       166.45396      -44.313548
       60.000000      -3.5317680      0.23861682       93.567939       171.86529      -45.557397
       60.800000      -3.5836505      0.35437711       94.424686       177.54487      -46.816438
       61.600000      -3.6376067      0.47258554       95.262203       183.51552      -48.090384
       62.400000      -3.6937096      0.59296164       96.080158       189.80274      -49.378940
       63.200000      -3.7520081      0.71521217       96.878227       196.43503      -50.681797
       64.000000      -3.8125256      0.83903212       97.656094       203.44442      -51.998637
       64.800000      -3.8752581      0.96410567       98.413454       210.86699      -53.329132
       65.600000      -3.9401730       1.0901073       99.150010       218.74355      -54.672944
       66.400000      -4.0072079       1.2167027       99.865476       227.12042      -56.029725
       67.200000      -4.0762696       1.3435505       100.55958       236.05045      -57.399118
       68.000000      -4.1472342       1.4703030       101.23204       245.59414      -58.780759
       68.800000      -4.2199461       1.5966074       101.88262       255.82112      -60.174274
       69.600000      -4.2942192       1.7221079       102.51106       266.81195      -61.579284
       70.400000      -4.3698366       1.8464462       103.11713       278.66031      -62.995400
       71.200000      -4.4465523       1.9692634       103.70061       291.47585      -64.422228
       72.000000      -4.5240919       2.0902013       104.26129       305.38768      -65.859367
       72.800000      -4.6021552       2.2089037       104.79895       320.54894      -67.306412
       73.600000      -4.6804173       2.3250180       105.31341       337.14264      -68.762950
       74.400000      -4.7585319       2.4381966       105.80449       355.38929      -70.228566
       75.200000      -4.8361337       2.5480983       106.27201       375.55713      -71.702837
       76.000000      -4.9128417       2.6543895       106.71582       397.97565      -73.185339
       76.800000      -4.9882624       2.7567456       107.13576       423.05423      -74.675644
       77.600000      -5.0619936       2.8548526       107.53169       451.30788      -76.173319
       78.400000      -5.1336281       2.9484079       107.90348       483.39369      -77.677929
       79.200000      -5.2027579       3.0371219       108.25102       520.16339      -79.189036
       80.000000      -5.2689778       3.1207189       108.57417       562.74130      -80.706201

Table series: Data for wavelength : 0.587562 µm.
   Y Angle (deg)       Tan Shift       Sag Shift     Real Height     Ref. Height      Distortion
  --------------  --------------  --------------  --------------  --------------  --------------
      0.00000000      0.61008767      0.61008767      0.00000000      0.00000000      0.00000000
      0.80000000      0.60835060      0.60874282       1.3909921       1.3910941 -7.3333891E-003
       1.6000000      0.60318004      0.60471237       2.7819144       2.7827308    -0.029336238
       2.4000000      0.59458829      0.59800866       4.1726969       4.1754534    -0.066016580
       3.2000000      0.58259581      0.58865224       5.5632690       5.5698072     -0.11738779
       4.0000000      0.56723121      0.57667183       6.9535588       6.9663398     -0.18346854
       4.8000000      0.54853116      0.56210429       8.3434935       8.3656023     -0.26428279
       5.6000000      0.52654031      0.54499458       9.7329984       9.7681501     -0.35985975
       6.4000000      0.50131120      0.52539571       11.121997       11.174544     -0.47023375
       7.2000000      0.47290412      0.50336863       12.510411       12.585350     -0.59544427
       8.0000000      0.44138696      0.47898219       13.898158       14.001142     -0.73553580
       8.8000000      0.40683505      0.45231304       15.285156       15.422502     -0.89055775
       9.6000000      0.36933097      0.42344549       16.671315       16.850020      -1.0605644
       10.400000      0.32896436      0.39247143       18.056545       18.284297      -1.2456146
       11.200000      0.28583165      0.35949020       19.440753       19.725945      -1.4457721
       12.000000      0.24003583      0.32460841       20.823838       21.175586      -1.6611048
       12.800000      0.19168618      0.28793982       22.205697       22.633859      -1.8916850
       13.600000      0.14089793      0.24960514       23.586224       24.101413      -2.1375893
       14.400000     0.087791989      0.20973188       24.965304       25.578916      -2.3988980
       15.200000     0.032494548      0.16845411       26.342820       27.067052      -2.6756955
       16.000000    -0.024863274      0.12591225       27.718648       28.566522      -2.9680693
       16.800000    -0.084145841     0.082252859       29.092658       30.078048      -3.2761109
       17.600000     -0.14521343     0.037628377       30.464714       31.602373      -3.5999144
       18.400000     -0.20792266 -7.8031555E-003       31.834675       33.140261      -3.9395771
       19.200000     -0.27212704    -0.053878371       33.202392       34.692504      -4.2951988
       20.000000     -0.33767738     -0.10042888       34.567709       36.259916      -4.6668818
       20.800000     -0.40442243     -0.14728158       35.930463       37.843342      -5.0547302
       21.600000     -0.47220937     -0.19425902       37.290485       39.443655      -5.4588503
       22.400000     -0.54088441     -0.24117974       38.647597       41.061762      -5.8793495
       23.200000     -0.61029345     -0.28785866       40.001614       42.698601      -6.3163366
       24.000000     -0.68028265     -0.33410747       41.352343       44.355151      -6.7699210
       24.800000     -0.75069916     -0.37973505       42.699582       46.032428      -7.2402127
       25.600000     -0.82139175     -0.42454794       44.043123       47.731488      -7.7273218
       26.400000     -0.89221157     -0.46835075       45.382747       49.453436      -8.2313578
       27.200000     -0.96301280     -0.51094668       46.718229       51.199422      -8.7524298
       28.000000      -1.0336535     -0.55213802       48.049333       52.970649      -9.2906457
       28.800000      -1.1039962     -0.59172665       49.375818       54.768373      -9.8461118
       29.600000      -1.1739090     -0.62951461       50.697430       56.593912      -10.418932
       30.400000      -1.2432657     -0.66530465       52.013910       58.448644      -11.009210
       31.200000      -1.3119475     -0.69890082       53.324988       60.334016      -11.617042
       32.000000      -1.3798430     -0.73010906       54.630386       62.251548      -12.242526
       32.800000      -1.4468491     -0.75873784       55.929817       64.202836      -12.885753
       33.600000      -1.5128721     -0.78459878       57.222988       66.189563      -13.546811
       34.400000      -1.5778283     -0.80750729       58.509594       68.213498      -14.225783
       35.200000      -1.6416444     -0.82728328       59.789323       70.276508      -14.922746
       36.000000      -1.7042587     -0.84375181       61.061857       72.380565      -15.637772
       36.800000      -1.7656213     -0.85674376       62.326867       74.527751      -16.370927
       37.600000      -1.8256951     -0.86609660       63.584018       76.720270      -17.122270
       38.400000      -1.8844558     -0.87165500       64.832967       78.960455      -17.891852
       39.200000      -1.9418930     -0.87327162       66.073365       81.250782      -18.679718
       40.000000      -1.9980104     -0.87080778       67.304853       83.593875      -19.485903
       40.800000      -2.0528257     -0.86413421       68.527070       85.992527      -20.310435
       41.600000      -2.1063714     -0.85313170       69.739645       88.449706      -21.153332
       42.400000      -2.1586949     -0.83769185       70.942204       90.968575      -22.014603
       43.200000      -2.2098581     -0.81771773       72.134366       93.552507      -22.894246
       44.000000      -2.2599376     -0.79312455       73.315745       96.205103      -23.792250
       44.800000      -2.3090247     -0.76384034       74.485952       98.930216      -24.708592
       45.600000      -2.3572244     -0.72980657       75.644594       101.73197      -25.643239
       46.400000      -2.4046557     -0.69097872       76.791273       104.61477      -26.596147
       47.200000      -2.4514502     -0.64732692       77.925591       107.58338      -27.567258
       48.000000      -2.4977519     -0.59883640       79.047144       110.64288      -28.556505
       48.800000      -2.5437157     -0.54550806       80.155531       113.79878      -29.563805
       49.600000      -2.5895069     -0.48735886       81.250345       117.05698      -30.589066
       50.400000      -2.6352991     -0.42442227       82.331183       120.42388      -31.632181
       51.200000      -2.6812735     -0.35674857       83.397640       123.90640      -32.693031
       52.000000      -2.7276168     -0.28440514       84.449311       127.51201      -33.771485
       52.800000      -2.7745197     -0.20747671       85.485795       131.24885      -34.867396
       53.600000      -2.8221747     -0.12606547       86.506692       135.12576      -35.980606
       54.400000      -2.8707743    -0.040291190       87.511603       139.15235      -37.110944
       55.200000      -2.9205087     0.049708827       88.500134       143.33915      -38.258224
       56.000000      -2.9715635      0.14377978       89.471896       147.69762      -39.422248
       56.800000      -3.0241173      0.24174953       90.426502       152.24036      -40.602806
       57.600000      -3.0783394      0.34342888       91.363573       156.98120      -41.799674
       58.400000      -3.1343872      0.44861186       92.282733       161.93536      -43.012613
       59.200000      -3.1924037      0.55707617       93.183614       167.11964      -44.241376
       60.000000      -3.2525150      0.66858369       94.065853       172.55262      -45.485699
       60.800000      -3.3148282      0.78288104       94.929098       178.25491      -46.745310
       61.600000      -3.3794285      0.89970032       95.773001       184.24944      -48.019923
       62.400000      -3.4463774       1.0187598       96.597225       190.56180      -49.309240
       63.200000      -3.5157106       1.1397649       97.401438       197.22061      -50.612953
       64.000000      -3.5874359       1.2624090       98.185321       204.25804      -51.930743
       64.800000      -3.6615316       1.3863744       98.948563       211.71029      -53.262280
       65.600000      -3.7379456       1.5113337       99.690863       219.61835      -54.607225
       66.400000      -3.8165934       1.6369507       100.41193       228.02873      -55.965229
       67.200000      -3.8973581       1.7628815       101.11148       236.99447      -57.335934
       68.000000      -3.9800895       1.8887762       101.78924       246.57632      -58.718972
       68.800000      -4.0646043       2.0142799       102.44496       256.84420      -60.113969
       69.600000      -4.1506862       2.1390340       103.07838       267.87898      -61.520543
       70.400000      -4.2380870       2.2626780       103.68926       279.77473      -62.938303
       71.200000      -4.3265271       2.3848503       104.27739       292.64152      -64.366852
       72.000000      -4.4156975       2.5051903       104.84253       306.60899      -65.805787
       72.800000      -4.5052616       2.6233395       105.38449       321.83089      -67.254699
       73.600000      -4.5948577       2.7389427       105.90307       338.49094      -68.713174
       74.400000      -4.6841013       2.8516501       106.39809       356.81057      -70.180792
       75.200000      -4.7725885       2.9611181       106.86936       377.05906      -71.657130
       76.000000      -4.8598991       3.0670108       107.31673       399.56724      -73.141759
       76.800000      -4.9456006       3.1690019       107.74005       424.74611      -74.634247
