Results for:	
File:	C:\Users\User\OneDrive - Massachusetts Institute of Technology\Documents\MIT\Grad School\Classes\2.156\Lens Project\Prime Lenses\US02777363-1(1).ZMX
Title:	US Patent 2777363
Date:	11/7/2025 5:44:06 PM

0 message(s) in output.
3 series table(s) in output.

Table series: Data for wavelength : 0.550000 µm.
   Y Angle (deg)       Tan Shift       Sag Shift     Real Height     Ref. Height      Distortion
  --------------  --------------  --------------  --------------  --------------  --------------
      0.00000000  5.6266680E-003  5.6266680E-003      0.00000000      0.00000000      0.00000000
      0.14000000  5.6273793E-003  5.6260524E-003  2.5120046E-003  2.5120094E-003 -1.9173181E-004
      0.28000000  5.6300322E-003  5.6242057E-003  5.0240103E-003  5.0240489E-003 -7.6694633E-004
      0.42000000  5.6346251E-003  5.6211279E-003  7.5360183E-003  7.5361483E-003 -1.7257008E-003
      0.56000000  5.6411548E-003  5.6168191E-003     0.010048029     0.010048338 -3.0680909E-003
      0.70000000  5.6496171E-003  5.6112795E-003     0.012560045     0.012560647 -4.7942503E-003
      0.84000000  5.6600065E-003  5.6045091E-003     0.015072066     0.015073107 -6.9043512E-003
      0.98000000  5.6723165E-003  5.5965083E-003     0.017584093     0.017585746 -9.3986043E-003
       1.1200000  5.6865390E-003  5.5872772E-003     0.020096128     0.020098596    -0.012277259
       1.2600000  5.7026649E-003  5.5768160E-003     0.022608171     0.022611685    -0.015540603
       1.4000000  5.7206839E-003  5.5651252E-003     0.025120224     0.025125045    -0.019188963
       1.5400000  5.7405843E-003  5.5522050E-003     0.027632286     0.027638705    -0.023222706
       1.6800000  5.7623534E-003  5.5380558E-003     0.030144360     0.030152695    -0.027642236
       1.8200000  5.7859769E-003  5.5226779E-003     0.032656446     0.032667046    -0.032447998
       1.9600000  5.8114395E-003  5.5060719E-003     0.035168544     0.035181787    -0.037640478
       2.1000000  5.8387244E-003  5.4882380E-003     0.037680656     0.037696948    -0.043220199
       2.2400000  5.8678137E-003  5.4691768E-003     0.040192781     0.040212561    -0.049187728
       2.3800000  5.8986882E-003  5.4488888E-003     0.042704921     0.042728654    -0.055543669
       2.5200000  5.9313270E-003  5.4273744E-003     0.045217076     0.045245259    -0.062288671
       2.6600000  5.9657083E-003  5.4046341E-003     0.047729246     0.047762404    -0.069423421
       2.8000000  6.0018088E-003  5.3806685E-003     0.050241432     0.050280122    -0.076948650
       2.9400000  6.0396036E-003  5.3554781E-003     0.052753633     0.052798441    -0.084865131
       3.0800000  6.0790668E-003  5.3290635E-003     0.055265851     0.055317392    -0.093173680
       3.2200000  6.1201707E-003  5.3014251E-003     0.057778084     0.057837006     -0.10187516
       3.3600000  6.1628864E-003  5.2725636E-003     0.060290333     0.060357312     -0.11097046
       3.5000000  6.2071833E-003  5.2424793E-003     0.062802598     0.062878342     -0.12046054
       3.6400000  6.2530297E-003  5.2111730E-003     0.065314879     0.065400125     -0.13034640
       3.7800000  6.3003920E-003  5.1786450E-003     0.067827174     0.067922693     -0.14062906
       3.9200000  6.3492353E-003  5.1448959E-003     0.070339483     0.070446075     -0.15130961
       4.0600000  6.3995230E-003  5.1099261E-003     0.072851806     0.072970302     -0.16238919
       4.2000000  6.4512170E-003  5.0737361E-003     0.075364142     0.075495405     -0.17386897
       4.3400000  6.5042775E-003  5.0363263E-003     0.077876490     0.078021415     -0.18575018
       4.4800000  6.5586631E-003  4.9976971E-003     0.080388848     0.080548361     -0.19803409
       4.6200000  6.6143308E-003  4.9578488E-003     0.082901215     0.083076275     -0.21072204
       4.7600000  6.6712356E-003  4.9167817E-003     0.085413590     0.085605188     -0.22381541
       4.9000000  6.7293311E-003  4.8744960E-003     0.087925971     0.088135130     -0.23731562
       5.0400000  6.7885688E-003  4.8309919E-003     0.090438357     0.090666132     -0.25122415
       5.1800000  6.8488987E-003  4.7862696E-003     0.092950744     0.093198225     -0.26554255
       5.3200000  6.9102687E-003  4.7403291E-003     0.095463131     0.095731440     -0.28027240
       5.4600000  6.9726248E-003  4.6931702E-003     0.097975516     0.098265808     -0.29541535
       5.6000000  7.0359113E-003  4.6447930E-003      0.10048790      0.10080136     -0.31097311
       5.7400000  7.1000702E-003  4.5951972E-003      0.10300027      0.10333813     -0.32694745
       5.8800000  7.1650416E-003  4.5443824E-003      0.10551263      0.10587614     -0.34334017
       6.0200000  7.2307637E-003  4.4923483E-003      0.10802497      0.10841543     -0.36015318
       6.1600000  7.2971724E-003  4.4390943E-003      0.11053730      0.11095603     -0.37738841
       6.3000000  7.3642013E-003  4.3846197E-003      0.11304960      0.11349798     -0.39504788
       6.4400000  7.4317823E-003  4.3289236E-003      0.11556188      0.11604129     -0.41313366
       6.5800000  7.4998444E-003  4.2720053E-003      0.11807413      0.11858600     -0.43164789
       6.7200000  7.5683147E-003  4.2138635E-003      0.12058634      0.12113216     -0.45059278
       6.8600000  7.6371178E-003  4.1544969E-003      0.12309852      0.12367977     -0.46997062
       7.0000000  7.7061759E-003  4.0939042E-003      0.12561064      0.12622889     -0.48978376
       7.1400000  7.7754088E-003  4.0320836E-003      0.12812272      0.12877954     -0.51003461
       7.2800000  7.8447336E-003  3.9690335E-003      0.13063473      0.13133174     -0.53072569
       7.4200000  7.9140648E-003  3.9047516E-003      0.13314668      0.13388554     -0.55185957
       7.5600000  7.9833144E-003  3.8392358E-003      0.13565857      0.13644097     -0.57343892
       7.7000000  8.0523916E-003  3.7724835E-003      0.13817037      0.13899806     -0.59546646
       7.8400000  8.1212028E-003  3.7044921E-003      0.14068209      0.14155683     -0.61794502
       7.9800000  8.1896515E-003  3.6352584E-003      0.14319372      0.14411733     -0.64087752
       8.1200000  8.2576383E-003  3.5647793E-003      0.14570524      0.14667958     -0.66426696
       8.2600000  8.3250608E-003  3.4930511E-003      0.14821665      0.14924362     -0.68811641
       8.4000000  8.3918135E-003  3.4200701E-003      0.15072795      0.15180948     -0.71242908
       8.5400000  8.4577878E-003  3.3458319E-003      0.15323911      0.15437719     -0.73720822
       8.6800000  8.5228720E-003  3.2703320E-003      0.15575014      0.15694679     -0.76245724
       8.8200000  8.5869507E-003  3.1935656E-003      0.15826102      0.15951831     -0.78817960
       8.9600000  8.6499055E-003  3.1155274E-003      0.16077173      0.16209177     -0.81437889
       9.1000000  8.7116144E-003  3.0362118E-003      0.16328227      0.16466722     -0.84105882
       9.2400000  8.7719517E-003  2.9556126E-003      0.16579263      0.16724469     -0.86822318
       9.3800000  8.8307883E-003  2.8737234E-003      0.16830279      0.16982420     -0.89587591
       9.5200000  8.8879911E-003  2.7905373E-003      0.17081273      0.17240580     -0.92402104
       9.6600000  8.9434233E-003  2.7060468E-003      0.17332246      0.17498952     -0.95266274
       9.8000000  8.9969442E-003  2.6202440E-003      0.17583194      0.17757538     -0.98180531
       9.9400000  9.0484090E-003  2.5331204E-003      0.17834116      0.18016343      -1.0114532
       10.080000  9.0976688E-003  2.4446672E-003      0.18085011      0.18275370      -1.0416109
       10.220000  9.1445703E-003  2.3548747E-003      0.18335878      0.18534621      -1.0722831
       10.360000  9.1889561E-003  2.2637328E-003      0.18586714      0.18794102      -1.1034747
       10.500000  9.2306641E-003  2.1712308E-003      0.18837517      0.19053814      -1.1351908
       10.640000  9.2695279E-003  2.0773571E-003      0.19088286      0.19313762      -1.1674363
       10.780000  9.3053761E-003  1.9820998E-003      0.19339018      0.19573948      -1.2002167
       10.920000  9.3380326E-003  1.8854460E-003      0.19589712      0.19834376      -1.2335375
       11.060000  9.3673164E-003  1.7873821E-003      0.19840365      0.20095051      -1.2674041
       11.200000  9.3930415E-003  1.6878939E-003      0.20090975      0.20355974      -1.3018226
       11.340000  9.4150164E-003  1.5869660E-003      0.20341540      0.20617150      -1.3367989
       11.480000  9.4330445E-003  1.4845827E-003      0.20592057      0.20878582      -1.3723392
       11.620000  9.4469236E-003  1.3807268E-003      0.20842523      0.21140273      -1.4084498
       11.760000  9.4564461E-003  1.2753807E-003      0.21092937      0.21402228      -1.4451375
       11.900000  9.4613982E-003  1.1685255E-003      0.21343294      0.21664450      -1.4824090
       12.040000  9.4615605E-003  1.0601413E-003      0.21593592      0.21926941      -1.5202713
       12.180000  9.4567074E-003  9.5020729E-004      0.21843828      0.22189706      -1.5587318
       12.320000  9.4466069E-003  8.3870147E-004      0.22093999      0.22452749      -1.5977978
       12.460000  9.4310209E-003  7.2560066E-004      0.22344102      0.22716072      -1.6374772
       12.600000  9.4097043E-003  6.1088047E-004      0.22594132      0.22979680      -1.6777780
       12.740000  9.3824055E-003  4.9451523E-004      0.22844087      0.23243577      -1.7187085
       12.880000  9.3488657E-003  3.7647797E-004      0.23093963      0.23507764      -1.7602771
       13.020000  9.3088191E-003  2.5674028E-004      0.23343755      0.23772248      -1.8024928
       13.160000  9.2619925E-003  1.3527234E-004      0.23593459      0.24037030      -1.8453647
       13.300000  9.2081049E-003  1.2042770E-005      0.23843072      0.24302115      -1.8889021
       13.440000  9.1468677E-003 -1.1298138E-004      0.24092588      0.24567506      -1.9331150
       13.580000  9.0779843E-003 -2.3983474E-004      0.24342004      0.24833208      -1.9780134
       13.720000  9.0011496E-003 -3.6855370E-004      0.24591313      0.25099223      -2.0236077
       13.860000  8.9160503E-003 -4.9917646E-004      0.24840512      0.25365556      -2.0699089
       14.000000  8.8223642E-003 -6.3174314E-004      0.25089595      0.25632210      -2.1169280

Table series: Data for wavelength : 0.470000 µm.
   Y Angle (deg)       Tan Shift       Sag Shift     Real Height     Ref. Height      Distortion
  --------------  --------------  --------------  --------------  --------------  --------------
      0.00000000  4.1046673E-003  4.1046673E-003      0.00000000      0.00000000      0.00000000
      0.14000000  4.1054180E-003  4.1040760E-003  2.5171218E-003  2.5171266E-003 -1.9009274E-004
      0.28000000  4.1081845E-003  4.1023019E-003  5.0342449E-003  5.0342832E-003 -7.6039023E-004
      0.42000000  4.1129649E-003  4.0993453E-003  7.5513708E-003  7.5515000E-003 -1.7109504E-003
      0.56000000  4.1197560E-003  4.0952061E-003     0.010068501     0.010068807 -3.0418698E-003
      0.70000000  4.1285535E-003  4.0898844E-003     0.012585636     0.012586234 -4.7532836E-003
      0.84000000  4.1393518E-003  4.0833805E-003     0.015102778     0.015103812 -6.8453658E-003
      0.98000000  4.1521441E-003  4.0756945E-003     0.017619927     0.017621569 -9.3183295E-003
       1.1200000  4.1669222E-003  4.0668267E-003     0.020137086     0.020139538    -0.012172427
       1.2600000  4.1836767E-003  4.0567772E-003     0.022654256     0.022657747    -0.015407948
       1.4000000  4.2023970E-003  4.0455464E-003     0.025171437     0.025176226    -0.019025224
       1.5400000  4.2230711E-003  4.0331346E-003     0.027688630     0.027695007    -0.023024625
       1.6800000  4.2456859E-003  4.0195421E-003     0.030205838     0.030214118    -0.027406561
       1.8200000  4.2702269E-003  4.0047693E-003     0.032723060     0.032733591    -0.032171482
       1.9600000  4.2966781E-003  3.9888166E-003     0.035240298     0.035253455    -0.037319877
       2.1000000  4.3250226E-003  3.9716843E-003     0.037757553     0.037773740    -0.042852278
       2.2400000  4.3552417E-003  3.9533729E-003     0.040274825     0.040294477    -0.048769255
       2.3800000  4.3873156E-003  3.9338828E-003     0.042792116     0.042815695    -0.055071423
       2.5200000  4.4212232E-003  3.9132145E-003     0.045309426     0.045337426    -0.061759437
       2.6600000  4.4569419E-003  3.8913686E-003     0.047826756     0.047859700    -0.068833992
       2.8000000  4.4944476E-003  3.8683453E-003     0.050344106     0.050382546    -0.076295828
       2.9400000  4.5337151E-003  3.8441453E-003     0.052861477     0.052905995    -0.084145728
       3.0800000  4.5747174E-003  3.8187690E-003     0.055378869     0.055430077    -0.092384518
       3.2200000  4.6174263E-003  3.7922170E-003     0.057896282     0.057954824     -0.10101307
       3.3600000  4.6618120E-003  3.7644896E-003     0.060413717     0.060480264     -0.11003229
       3.5000000  4.7078432E-003  3.7355875E-003     0.062931173     0.063006430     -0.11944315
       3.6400000  4.7554872E-003  3.7055109E-003     0.065448651     0.065533350     -0.12924665
       3.7800000  4.8047095E-003  3.6742605E-003     0.067966149     0.068061056     -0.13944384
       3.9200000  4.8554742E-003  3.6418367E-003     0.070483669     0.070589579     -0.15003583
       4.0600000  4.9077437E-003  3.6082397E-003     0.073001209     0.073118948     -0.16102375
       4.2000000  4.9614790E-003  3.5734701E-003     0.075518769     0.075649195     -0.17240881
       4.3400000  5.0166392E-003  3.5375282E-003     0.078036348     0.078180350     -0.18419225
       4.4800000  5.0731816E-003  3.5004142E-003     0.080553945     0.080712444     -0.19637537
       4.6200000  5.1310621E-003  3.4621285E-003     0.083071558     0.083245508     -0.20895951
       4.7600000  5.1902346E-003  3.4226713E-003     0.085589187     0.085779572     -0.22194608
       4.9000000  5.2506513E-003  3.3820426E-003     0.088106831     0.088314667     -0.23533652
       5.0400000  5.3122624E-003  3.3402426E-003     0.090624486     0.090850825     -0.24913235
       5.1800000  5.3750165E-003  3.2972714E-003     0.093142153     0.093388076     -0.26333513
       5.3200000  5.4388602E-003  3.2531288E-003     0.095659828     0.095926452     -0.27794647
       5.4600000  5.5037380E-003  3.2078147E-003     0.098177509     0.098465983     -0.29296805
       5.6000000  5.5695924E-003  3.1613289E-003      0.10069519      0.10100670     -0.30840161
       5.7400000  5.6363642E-003  3.1136712E-003      0.10321288      0.10354864     -0.32424895
       5.8800000  5.7039917E-003  3.0648409E-003      0.10573056      0.10609182     -0.34051191
       6.0200000  5.7724114E-003  3.0148377E-003      0.10824824      0.10863628     -0.35719242
       6.1600000  5.8415575E-003  2.9636607E-003      0.11076591      0.11118206     -0.37429246
       6.3000000  5.9113618E-003  2.9113094E-003      0.11328357      0.11372918     -0.39181409
       6.4400000  5.9817541E-003  2.8577826E-003      0.11580121      0.11627767     -0.40975941
       6.5800000  6.0526618E-003  2.8030793E-003      0.11831884      0.11882757     -0.42813061
       6.7200000  6.1240099E-003  2.7471983E-003      0.12083643      0.12137891     -0.44692996
       6.8600000  6.1957208E-003  2.6901381E-003      0.12335400      0.12393172     -0.46615977
       7.0000000  6.2677147E-003  2.6318972E-003      0.12587153      0.12648603     -0.48582246
       7.1400000  6.3399091E-003  2.5724737E-003      0.12838902      0.12904187     -0.50592049
       7.2800000  6.4122189E-003  2.5118657E-003      0.13090646      0.13159928     -0.52645644
       7.4200000  6.4845562E-003  2.4500709E-003      0.13342385      0.13415828     -0.54743293
       7.5600000  6.5568307E-003  2.3870869E-003      0.13594118      0.13671891     -0.56885269
       7.7000000  6.6289489E-003  2.3229110E-003      0.13845845      0.13928121     -0.59071852
       7.8400000  6.7008148E-003  2.2575403E-003      0.14097564      0.14184519     -0.61303332
       7.9800000  6.7723291E-003  2.1909715E-003      0.14349274      0.14441091     -0.63580007
       8.1200000  6.8433896E-003  2.1232012E-003      0.14600976      0.14697838     -0.65902184
       8.2600000  6.9138913E-003  2.0542256E-003      0.14852668      0.14954764     -0.68270180
       8.4000000  6.9837257E-003  1.9840406E-003      0.15104349      0.15211873     -0.70684323
       8.5400000  7.0527810E-003  1.9126418E-003      0.15356018      0.15469167     -0.73144949
       8.6800000  7.1209425E-003  1.8400243E-003      0.15607674      0.15726650     -0.75652405
       8.8200000  7.1880916E-003  1.7661829E-003      0.15859317      0.15984326     -0.78207049
       8.9600000  7.2541066E-003  1.6911123E-003      0.16110944      0.16242196     -0.80809251
       9.1000000  7.3188619E-003  1.6148064E-003      0.16362556      0.16500266     -0.83459390
       9.2400000  7.3822285E-003  1.5372589E-003      0.16614150      0.16758537     -0.86157859
       9.3800000  7.4440734E-003  1.4584629E-003      0.16865725      0.17017015     -0.88905063
       9.5200000  7.5042600E-003  1.3784113E-003      0.17117280      0.17275700     -0.91701418
       9.6600000  7.5626474E-003  1.2970961E-003      0.17368813      0.17534598     -0.94547353
       9.8000000  7.6190910E-003  1.2145092E-003      0.17620324      0.17793711     -0.97443312
       9.9400000  7.6734418E-003  1.1306418E-003      0.17871810      0.18053044      -1.0038975
       10.080000  7.7255466E-003  1.0454845E-003      0.18123269      0.18312598      -1.0338715
       10.220000  7.7752479E-003  9.5902727E-004      0.18374701      0.18572378      -1.0643598
       10.360000  7.8223834E-003  8.7125961E-004      0.18626103      0.18832387      -1.0953675
       10.500000  7.8667866E-003  7.8217028E-004      0.18877473      0.19092628      -1.1268997
       10.640000  7.9082860E-003  6.9174740E-004      0.19128810      0.19353105      -1.1589619
       10.780000  7.9467052E-003  5.9997836E-004      0.19380111      0.19613821      -1.1915594
       10.920000  7.9818630E-003  5.0684982E-004      0.19631374      0.19874780      -1.2246981
       11.060000  8.0135731E-003  4.1234769E-004      0.19882598      0.20135986      -1.2583837
       11.200000  8.0416436E-003  3.1645704E-004      0.20133779      0.20397440      -1.2926223
       11.340000  8.0658777E-003  2.1916211E-004      0.20384915      0.20659148      -1.3274201
       11.480000  8.0860725E-003  1.2044626E-004      0.20636003      0.20921113      -1.3627836
       11.620000  8.1020200E-003  2.0291905E-005      0.20887042      0.21183338      -1.3987195
       11.760000  8.1135058E-003 -8.1319481E-005      0.21138028      0.21445826      -1.4352346
       11.900000  8.1203099E-003 -1.8440745E-004      0.21388958      0.21708582      -1.4723360
       12.040000  8.1222060E-003 -2.8899262E-004      0.21639830      0.21971608      -1.5100311
       12.180000  8.1189613E-003 -3.9509670E-004      0.21890639      0.22234908      -1.5483274
       12.320000  8.1103368E-003 -5.0274257E-004      0.22141383      0.22498487      -1.5872328
       12.460000  8.0960864E-003 -6.1195431E-004      0.22392059      0.22762347      -1.6267554
       12.600000  8.0759575E-003 -7.2275729E-004      0.22642662      0.23026492      -1.6669036
       12.740000  8.0496902E-003 -8.3517818E-004      0.22893189      0.23290925      -1.7076859
       12.880000  8.0170173E-003 -9.4924506E-004      0.23143637      0.23555651      -1.7491115
       13.020000  7.9776643E-003 -1.0649875E-003      0.23394000      0.23820673      -1.7911895
       13.160000  7.9313488E-003 -1.1824364E-003      0.23644275      0.24085995      -1.8339295
       13.300000  7.8777804E-003 -1.3016246E-003      0.23894457      0.24351620      -1.8773415
       13.440000  7.8166608E-003 -1.4225863E-003      0.24144542      0.24617552      -1.9214357
