Results for:	
File:	C:\Users\User\OneDrive - Massachusetts Institute of Technology\Documents\MIT\Grad School\Classes\2.156\Lens Project\Prime Lenses\US02487749-1.zmx
Title:	
Date:	11/7/2025 5:42:12 PM

0 message(s) in output.
3 series table(s) in output.

Table series: Data for wavelength : 0.486133 µm.
   Y Angle (deg)       Tan Shift       Sag Shift     Real Height     Ref. Height      Distortion
  --------------  --------------  --------------  --------------  --------------  --------------
      0.00000000  5.9304430E-003  5.9304430E-003      0.00000000      0.00000000      0.00000000
      0.20000000  5.9325150E-003  5.9210481E-003     0.089982826     0.089982714  1.2546449E-004
      0.40000000  5.9398913E-003  5.8928783E-003      0.17996856      0.17996762  5.2395074E-004
      0.60000000  5.9524379E-003  5.8459775E-003      0.26996012      0.26995691  1.1879478E-003
      0.80000000  5.9699305E-003  5.7804192E-003      0.35996041      0.35995278  2.1172326E-003
       1.0000000  5.9920539E-003  5.6963062E-003      0.44997233      0.44995743  3.3115023E-003
       1.2000000  6.0184018E-003  5.5937710E-003      0.53999880      0.53997304  4.7703561E-003
       1.4000000  6.0484761E-003  5.4729754E-003      0.63004273      0.63000182  6.4933070E-003
       1.6000000  6.0816868E-003  5.3341112E-003      0.72010702      0.72004596  8.4797773E-003
       1.8000000  6.1173506E-003  5.1773999E-003      0.81019458      0.81010767     0.010729098
       2.0000000  6.1546904E-003  5.0030932E-003      0.90030832      0.90018913     0.013240510
       2.2000000  6.1928344E-003  4.8114728E-003      0.99045113      0.99029256     0.016013158
       2.4000000  6.2308149E-003  4.6028506E-003       1.0806259       1.0804202     0.019046094
       2.6000000  6.2675670E-003  4.3775697E-003       1.1708356       1.1705741     0.022338274
       2.8000000  6.3019277E-003  4.1360034E-003       1.2610831       1.2607567     0.025888558
       3.0000000  6.3326340E-003  3.8785564E-003       1.3513712       1.3509700     0.029695704
       3.2000000  6.3583217E-003  3.6056648E-003       1.4417029       1.4412164     0.033758372
       3.4000000  6.3775234E-003  3.3177965E-003       1.5320811       1.5314980     0.038075118
       3.6000000  6.3886672E-003  3.0154512E-003       1.6225087       1.6218171     0.042644394
       3.8000000  6.3900742E-003  2.6991610E-003       1.7129885       1.7121758     0.047464545
       4.0000000  6.3799570E-003  2.3694910E-003       1.8035234       1.8025764     0.052533805
       4.2000000  6.3564172E-003  2.0270396E-003       1.8941163       1.8930212     0.057850297
       4.4000000  6.3174432E-003  1.6724383E-003       1.9847702       1.9835124     0.063412029
       4.6000000  6.2609078E-003  1.3063531E-003       2.0754878       2.0740522     0.069216893
       4.8000000  6.1845657E-003  9.2948451E-004       2.1662720       2.1646428     0.075262658
       5.0000000  6.0860506E-003  5.4256804E-004       2.2571257       2.2552866     0.081546969
       5.2000000  5.9628727E-003  1.4637490E-004       2.3480518       2.3459858     0.088067345
       5.4000000  5.8124153E-003 -2.5828753E-004       2.4390531       2.4367426     0.094821172
       5.6000000  5.6319323E-003 -6.7057501E-004       2.5301325       2.5275593      0.10180570
       5.8000000  5.4185443E-003 -1.0896059E-003       2.6212928       2.6184382      0.10901805
       6.0000000  5.1692358E-003 -1.5144604E-003       2.7125368       2.7093816      0.11645518
       6.2000000  4.8808510E-003 -1.9441800E-003       2.8038674       2.8003917      0.12411392
       6.4000000  4.5500910E-003 -2.3777664E-003       2.8952874       2.8914709      0.13199094
       6.6000000  4.1735090E-003 -2.8141812E-003       2.9867996       2.9826214      0.14008274
       6.8000000  3.7475072E-003 -3.2523447E-003       3.0784068       3.0738456      0.14838568
       7.0000000  3.2683319E-003 -3.6911355E-003       3.1701118       3.1651458      0.15689593
       7.2000000  2.7320698E-003 -4.1293889E-003       3.2619174       3.2565243      0.16560951
       7.4000000  2.1346431E-003 -4.5658969E-003       3.3538263       3.3479834      0.17452224
       7.6000000  1.4718052E-003 -4.9994063E-003       3.4458414       3.4395254      0.18362976
       7.8000000  7.3913572E-004 -5.4286183E-003       3.5379653       3.5311528      0.19292751
       8.0000000 -6.7964424E-005 -5.8521874E-003       3.6302009       3.6228678      0.20241075
       8.2000000 -9.5427806E-004 -6.2687200E-003       3.7225507       3.7146729      0.21207452
       8.4000000 -1.9247772E-003 -6.6767734E-003       3.8150176       3.8065703      0.22191363
       8.6000000 -2.9846283E-003 -7.0748548E-003       3.9076043       3.8985626      0.23192271
       8.8000000 -4.1391980E-003 -7.4614196E-003       4.0003132       3.9906520      0.24209611
       9.0000000 -5.3940591E-003 -7.8348705E-003       4.0931473       4.0828411      0.25242798
       9.2000000 -6.7549961E-003 -8.1935559E-003       4.1861090       4.1751321      0.26291219
       9.4000000 -8.2280121E-003 -8.5357685E-003       4.2792010       4.2675275      0.27354238
       9.6000000 -9.8193341E-003 -8.8597439E-003       4.3724259       4.3600298      0.28431190
       9.8000000    -0.011535421 -9.1636591E-003       4.4657861       4.4526413      0.29521385
       10.000000    -0.013382968 -9.4456304E-003       4.5592844       4.5453646      0.30624100
       10.200000    -0.015368917 -9.7037125E-003       4.6529232       4.6382022      0.31738585
       10.400000    -0.017500460 -9.9358960E-003       4.7467049       4.7311564      0.32864058
       10.600000    -0.019785049    -0.010140106       4.8406320       4.8242298      0.33999704
       10.800000    -0.022230401    -0.010314200       4.9347070       4.9174249      0.35144676
       11.000000    -0.024844508    -0.010455965       5.0289322       5.0107441      0.36298090
       11.200000    -0.027635644    -0.010563118       5.1233099       5.1041901      0.37459025
       11.400000    -0.030612373    -0.010633302       5.2178426       5.1977654      0.38626524
       11.600000    -0.033783555    -0.010664081       5.3125323       5.2914725      0.39799589
       11.800000    -0.037158360    -0.010652944       5.4073814       5.3853139      0.40977181
       12.000000    -0.040746268    -0.010597298       5.5023921       5.4792924      0.42158218
       12.200000    -0.044557087    -0.010494464       5.5975664       5.5734104      0.43341574
       12.400000    -0.048600954    -0.010341679       5.6929064       5.6676705      0.44526075
       12.600000    -0.052888348    -0.010136091       5.7884142       5.7620755      0.45710499
       12.800000    -0.057430099 -9.8747547E-003       5.8840917       5.8566279      0.46893573
       13.000000    -0.062237395 -9.5546291E-003       5.9799408       5.9513304      0.48073973
       13.200000    -0.067321797 -9.1725756E-003       6.0759633       6.0461856      0.49250317
       13.400000    -0.072695238 -8.7253534E-003       6.1721609       6.1411963      0.50421168
       13.600000    -0.078370045 -8.2096161E-003       6.2685355       6.2363652      0.51585027
       13.800000    -0.084358940 -7.6219082E-003       6.3650884       6.3316949      0.52740334
       14.000000    -0.090675054 -6.9586610E-003       6.4618214       6.4271882      0.53885462
       14.200000    -0.097331933 -6.2161887E-003       6.5587358       6.5228479      0.55018717
       14.400000     -0.10434355 -5.3906841E-003       6.6558329       6.6186767      0.56138333
       14.600000     -0.11172433 -4.4782142E-003       6.7531140       6.7146775      0.57242471
       14.800000     -0.11948913 -3.4747154E-003       6.8505802       6.8108530      0.58329212
       15.000000     -0.12765326 -2.3759888E-003       6.9482325       6.9072060      0.59396557
       15.200000     -0.13623251 -1.1776949E-003       7.0460718       7.0037395      0.60442421
       15.400000     -0.14524316  1.2465149E-004       7.1440990       7.1004563      0.61464630
       15.600000     -0.15470195  1.5356872E-003       7.2423145       7.1973592      0.62460917
       15.800000     -0.16462614  3.0602064E-003       7.3407191       7.2944512      0.63428918
       16.000000     -0.17503350  4.7031666E-003       7.4393129       7.3917351      0.64366167
       16.200000     -0.18594231  6.4696956E-003       7.5380962       7.4892141      0.65270090
       16.400000     -0.19737137  8.3650978E-003       7.6370691       7.5868909      0.66138001
       16.600000     -0.20934004     0.010394862       7.7362313       7.6847686      0.66967098
       16.800000     -0.22186823     0.012564667       7.8355826       7.7828503      0.67754454
       17.000000     -0.23497639     0.014880394       7.9351224       7.8811389      0.68497015
       17.200000     -0.24868556     0.017348128       8.0348499       7.9796376      0.69191589
       17.400000     -0.26301733     0.019974173       8.1347643       8.0783493      0.69834843
       17.600000     -0.27799392     0.022765057       8.2348643       8.1772772      0.70423295
       17.800000     -0.29363812     0.025727544       8.3351484       8.2764245      0.70953306
       18.000000     -0.30997333     0.028868643       8.4356150       8.3757942      0.71421071
       18.200000     -0.32702358     0.032195617       8.5362621       8.4753896      0.71822611
       18.400000     -0.34481352     0.035716000       8.6370873       8.5752139      0.72153766
       18.600000     -0.36336844     0.039437600       8.7380880       8.6752702      0.72410183
       18.800000     -0.38271428     0.043368520       8.8392614       8.7755620      0.72587306
       19.000000     -0.40287766     0.047517165       8.9406041       8.8760923      0.72680366
       19.200000     -0.42388583     0.051892260       9.0421124       8.9768646      0.72684368
       19.400000     -0.44576676     0.056502860       9.1437823       9.0778823      0.72594080
       19.600000     -0.46854911     0.061358372       9.2456093       9.1791485      0.72404018
       19.800000     -0.49226225     0.066468563       9.3475883       9.2806669      0.72108434
       20.000000     -0.51693629     0.071843585       9.4497140       9.3824407      0.71701298

Table series: Data for wavelength : 0.587562 µm.
   Y Angle (deg)       Tan Shift       Sag Shift     Real Height     Ref. Height      Distortion
  --------------  --------------  --------------  --------------  --------------  --------------
      0.00000000  3.5920678E-003  3.5920678E-003      0.00000000      0.00000000      0.00000000
      0.20000000  3.5879246E-003  3.5793355E-003     0.090063063     0.090062938  1.3882818E-004
      0.40000000  3.5759406E-003  3.5411525E-003      0.18012907      0.18012807  5.5526683E-004
      0.60000000  3.5559826E-003  3.4775608E-003      0.27020097      0.27019759  1.2491906E-003
      0.80000000  3.5278270E-003  3.3886308E-003      0.36028170      0.36027370  2.2203865E-003
       1.0000000  3.4911600E-003  3.2744607E-003      0.45037421      0.45035859  3.4685620E-003
       1.2000000  3.4455771E-003  3.1351770E-003      0.54048145      0.54045446  4.9933338E-003
       1.4000000  3.3905824E-003  2.9709345E-003      0.63060635      0.63056350  6.7942345E-003
       1.6000000  3.3255884E-003  2.7819166E-003      0.72075185      0.72068792  8.8707100E-003
       1.8000000  3.2499150E-003  2.5683349E-003      0.81092091      0.81082992     0.011222119
       2.0000000  3.1627890E-003  2.3304299E-003      0.90111646      0.90099170     0.013847731
       2.2000000  3.0633428E-003  2.0684709E-003      0.99134144      0.99117545     0.016746727
       2.4000000  2.9506136E-003  1.7827563E-003       1.0815988       1.0813834     0.019918197
       2.6000000  2.8235425E-003  1.4736138E-003       1.1718915       1.1716178     0.023361138
       2.8000000  2.6809727E-003  1.1414004E-003       1.2622224       1.2618807     0.027074454
       3.0000000  2.5216489E-003  7.8650316E-004       1.3525944       1.3521745     0.031056955
       3.2000000  2.3442150E-003  4.0933891E-004       1.4430106       1.4425013     0.035307352
       3.4000000  2.1472132E-003  1.0354943E-005       1.5334739       1.5328634     0.039824257
       3.6000000  1.9290820E-003 -4.0997080E-004       1.6239871       1.6232630     0.044606182
       3.8000000  1.6881545E-003 -8.5112936E-004       1.7145532       1.7137023     0.049651537
       4.0000000  1.4226562E-003 -1.3125804E-003       1.8051751       1.8041835     0.054958622
       4.2000000  1.1307035E-003 -1.7937519E-003       1.8958557       1.8947089     0.060525634
       4.4000000  8.1030091E-004 -2.2940393E-003       1.9865980       1.9852808     0.066350654
       4.6000000  4.5933935E-004 -2.8128059E-003       2.0774049       2.0759013     0.072431653
       4.8000000  7.5593286E-005 -3.3493814E-003       2.1682793       2.1665727     0.078766483
       5.0000000 -3.4328162E-004 -3.9030621E-003       2.2592240       2.2572973     0.085352876
       5.2000000 -7.9975105E-004 -4.4731102E-003       2.3502420       2.3480773     0.092188441
       5.4000000 -1.2964051E-003 -5.0587530E-003       2.4413362       2.4389151     0.099270659
       5.6000000 -1.8359611E-003 -5.6591825E-003       2.5325095       2.5298128      0.10659688
       5.8000000 -2.4212663E-003 -6.2735550E-003       2.6237647       2.6207727      0.11416432
       6.0000000 -3.0553017E-003 -6.9009900E-003       2.7151047       2.7117971      0.12197005
       6.2000000 -3.7411848E-003 -7.5405697E-003       2.8065325       2.8028884      0.13001101
       6.4000000 -4.4821735E-003 -8.1913386E-003       2.8980508       2.8940488      0.13828397
       6.6000000 -5.2816693E-003 -8.8523022E-003       2.9896626       2.9852806      0.14678558
       6.8000000 -6.1432214E-003 -9.5224265E-003       3.0813706       3.0765861      0.15551229
       7.0000000 -7.0705303E-003    -0.010200637       3.1731777       3.1679677      0.16446041
       7.2000000 -8.0674519E-003    -0.010885819       3.2650868       3.2594276      0.17362609
       7.4000000 -9.1380018E-003    -0.011576814       3.3571007       3.3509683      0.18300528
       7.6000000    -0.010286359    -0.012272422       3.4492221       3.4425919      0.19259375
       7.8000000    -0.011516872    -0.012971398       3.5414540       3.5343010      0.20238711
       8.0000000    -0.012834062    -0.013672451       3.6337989       3.6260978      0.21238074
       8.2000000    -0.014242626    -0.014374247       3.7262598       3.7179847      0.22256983
       8.4000000    -0.015747447    -0.015075402       3.8188394       3.8099641      0.23294937
       8.6000000    -0.017353592    -0.015774484       3.9115404       3.9020384      0.24351412
       8.8000000    -0.019066325    -0.016470012       4.0043655       3.9942099      0.25425861
       9.0000000    -0.020891106    -0.017160453       4.0973175       4.0864811      0.26517714
       9.2000000    -0.022833598    -0.017844223       4.1903991       4.1788544      0.27626378
       9.4000000    -0.024899676    -0.018519682       4.2836128       4.2713322      0.28751232
       9.6000000    -0.027095430    -0.019185138       4.3769614       4.3639170      0.29891629
       9.8000000    -0.029427170    -0.019838840       4.4704475       4.4566111      0.31046898
       10.000000    -0.031901435    -0.020478979       4.5640736       4.5494171      0.32216335
       10.200000    -0.034524997    -0.021103686       4.6578424       4.6423374      0.33399209
       10.400000    -0.037304870    -0.021711031       4.7517564       4.7353745      0.34594758
       10.600000    -0.040248314    -0.022299020       4.8458180       4.8285308      0.35802186
       10.800000    -0.043362844    -0.022865594       4.9400299       4.9218090      0.37020666
       11.000000    -0.046656235    -0.023408625       5.0343943       5.0152115      0.38249335
       11.200000    -0.050136529    -0.023925917       5.1289138       5.1087408      0.39487294
       11.400000    -0.053812046    -0.024415203       5.2235907       5.2023995      0.40733607
       11.600000    -0.057691386    -0.024874140       5.3184274       5.2961901      0.41987298
       11.800000    -0.061783442    -0.025300310       5.4134261       5.3901152      0.43247349
       12.000000    -0.066097402    -0.025691217       5.5085890       5.4841775      0.44512703
       12.200000    -0.070642762    -0.026044282       5.6039184       5.5783794      0.45782254
       12.400000    -0.075429329    -0.026356842       5.6994165       5.6727236      0.47054853
       12.600000    -0.080467235    -0.026626150       5.7950852       5.7672127      0.48329301
       12.800000    -0.085766938    -0.026849367       5.8909267       5.8618494      0.49604350
       13.000000    -0.091339237    -0.027023560       5.9869429       5.9566363      0.50878698
       13.200000    -0.097195276    -0.027145703       6.0831357       6.0515761      0.52150989
       13.400000     -0.10334655    -0.027212668       6.1795069       6.1466715      0.53419810
       13.600000     -0.10980493    -0.027221227       6.2760584       6.2419252      0.54683687
       13.800000     -0.11658264    -0.027168041       6.3727917       6.3373399      0.55941085
       14.000000     -0.12369231    -0.027049666       6.4697085       6.4329184      0.57190402
       14.200000     -0.13114692    -0.026862539       6.5668103       6.5286634      0.58429971
       14.400000     -0.13895989    -0.026602981       6.6640986       6.6245776      0.59658050
       14.600000     -0.14714502    -0.026267188       6.7615746       6.7206640      0.60872825
       14.800000     -0.15571653    -0.025851229       6.8592395       6.8169252      0.62072404
       15.000000     -0.16468907    -0.025351042       6.9570945       6.9133642      0.63254812
       15.200000     -0.17407771    -0.024762424       7.0551406       7.0099837      0.64417991
       15.400000     -0.18389798    -0.024081031       7.1533786       7.1067867      0.65559792
       15.600000     -0.19416584    -0.023302370       7.2518093       7.2037760      0.66677974
       15.800000     -0.20489772    -0.022421793       7.3504333       7.3009546      0.67770197
       16.000000     -0.21611051    -0.021434492       7.4492509       7.3983253      0.68834019
       16.200000     -0.22782156    -0.020335491       7.5482626       7.4958911      0.69866892
       16.400000     -0.24004874    -0.019119638       7.6474683       7.5936550      0.70866155
       16.600000     -0.25281036    -0.017781604       7.7468682       7.6916200      0.71829027
       16.800000     -0.26612527    -0.016315867       7.8464619       7.7897891      0.72752606
       17.000000     -0.28001279    -0.014716711       7.9462490       7.8881654      0.73633858
       17.200000     -0.29449278    -0.012978212       8.0462289       7.9867518      0.74469615
       17.400000     -0.30958560    -0.011094234       8.1464006       8.0855516      0.75256563
       17.600000     -0.32531213 -9.0584173E-003       8.2467632       8.1845677      0.75991241
       17.800000     -0.34169381 -6.8641693E-003       8.3473153       8.2838033      0.76670026
       18.000000     -0.35875259 -4.5046537E-003       8.4480552       8.3832617      0.77289131
       18.200000     -0.37651097 -1.9727800E-003       8.5489810       8.4829459      0.77844594
       18.400000     -0.39499200  7.3880760E-004       8.6500906       8.5828591      0.78332268
       18.600000     -0.41421930  3.6377427E-003       8.7513815       8.6830047      0.78747812
       18.800000     -0.43421703  6.7319494E-003       8.8528507       8.7833858      0.79086681
       19.000000     -0.45500993     0.010029656       8.9544952       8.8840058      0.79344113
       19.200000     -0.47662331     0.013539407       9.0563113       8.9848680      0.79515120
