Results for:	
File:	C:\Users\User\OneDrive - Massachusetts Institute of Technology\Documents\MIT\Grad School\Classes\2.156\Lens Project\Prime Lenses\US07173776-1.zmx
Title:	
Date:	11/7/2025 5:48:18 PM

0 message(s) in output.
3 series table(s) in output.

Table series: Data for wavelength : 0.486133 µm.
   Y Angle (deg)       Tan Shift       Sag Shift     Real Height     Ref. Height      Distortion
  --------------  --------------  --------------  --------------  --------------  --------------
      0.00000000    -0.027593924    -0.027593924      0.00000000      0.00000000      0.00000000
      0.89000000    -0.027602449    -0.027595058     0.045874983     0.045878908 -8.5534967E-003
       1.7800000    -0.027627433    -0.027598458     0.091748565     0.091779964    -0.034211584
       2.6700000    -0.027668834    -0.027604111      0.13761934      0.13772536    -0.076978625
       3.5600000    -0.027726586    -0.027612001      0.18348591      0.18373738     -0.13685997
       4.4500000    -0.027800595    -0.027622101      0.22934688      0.22983842     -0.21386311
       5.3400000    -0.027890743    -0.027634378      0.27520083      0.27605106     -0.30799768
       6.2300000    -0.027996884    -0.027648793      0.32104637      0.32239811     -0.41927550
       7.1200000    -0.028118847    -0.027665299      0.36688209      0.36890261     -0.54771053
       8.0100000    -0.028256432    -0.027683842      0.41270660      0.41558795     -0.69331893
       8.9000000    -0.028409417    -0.027704359      0.45851848      0.46247784     -0.85611902
       9.7900000    -0.028577552    -0.027726785      0.50431634      0.50959643      -1.0361314
       10.680000    -0.028760562    -0.027751043      0.55009877      0.55696830      -1.2333787
       11.570000    -0.028958146    -0.027777053      0.59586436      0.60461855      -1.4478861
       12.460000    -0.029169978    -0.027804727      0.64161172      0.65257286      -1.6796809
       13.350000    -0.029395707    -0.027833971      0.68733943      0.70085751      -1.9287925
       14.240000    -0.029634958    -0.027864685      0.73304609      0.74949950      -2.1952528
       15.130000    -0.029887330    -0.027896763      0.77873029      0.79852653      -2.4790960
       16.020000    -0.030152398    -0.027930092      0.82439063      0.84796716      -2.7803588
       16.910000    -0.030429715    -0.027964555      0.87002570      0.89785081      -3.0990800
       17.800000    -0.030718808    -0.028000030      0.91563408      0.94820788      -3.4353010
       18.690000    -0.031019181    -0.028036387      0.96121437      0.99906978      -3.7890656
       19.580000    -0.031330316    -0.028073494       1.0067652       1.0504691      -4.1604202
       20.470000    -0.031651671    -0.028111213       1.0522850       1.1024396      -4.5494136
       21.360000    -0.031982683    -0.028149402       1.0977726       1.1550163      -4.9560973
       22.250000    -0.032322766    -0.028187915       1.1432264       1.2082358      -5.3805252
       23.140000    -0.032671314    -0.028226602       1.1886450       1.2621361      -5.8227540
       24.030000    -0.033027699    -0.028265309       1.2340271       1.3167569      -6.2828432
       24.920000    -0.033391273    -0.028303880       1.2793712       1.3721395      -6.7608549
       25.810000    -0.033761368    -0.028342154       1.3246758       1.4283275      -7.2568541
       26.700000    -0.034137295    -0.028379972       1.3699396       1.4853661      -7.7709085
       27.590000    -0.034518349    -0.028417168       1.4151612       1.5433030      -8.3030890
       28.480000    -0.034903803    -0.028453576       1.4603391       1.6021883      -8.8534692
       29.370000    -0.035292916    -0.028489031       1.5054718       1.6620746      -9.4221259
       30.260000    -0.035684928    -0.028523365       1.5505580       1.7230172      -10.009139
       31.150000    -0.036079062    -0.028556410       1.5955962       1.7850745      -10.614591
       32.040000    -0.036474526    -0.028587998       1.6405849       1.8483084      -11.238570
       32.930000    -0.036870512    -0.028617963       1.6855228       1.9127838      -11.881163
       33.820000    -0.037266199    -0.028646139       1.7304084       1.9785698      -12.542465
       34.710000    -0.037660751    -0.028672362       1.7752402       2.0457396      -13.222572
       35.600000    -0.038053321    -0.028696471       1.8200168       2.1143707      -13.921584
       36.490000    -0.038443047    -0.028718307       1.8647367       2.1845455      -14.639604
       37.380000    -0.038829060    -0.028737715       1.9093985       2.2563519      -15.376741
       38.270000    -0.039210476    -0.028754545       1.9540007       2.3298832      -16.133105
       39.160000    -0.039586406    -0.028768652       1.9985418       2.4052391      -16.908812
       40.050000    -0.039955951    -0.028779895       2.0430203       2.4825263      -17.703982
       40.940000    -0.040318203    -0.028788140       2.0874348       2.5618586      -18.518737
       41.830000    -0.040672250    -0.028793263       2.1317837       2.6433582      -19.353206
       42.720000    -0.041017175    -0.028795144       2.1760656       2.7271562      -20.207520
       43.610000    -0.041352057    -0.028793674       2.2202789       2.8133933      -21.081817
       44.500000    -0.041675969    -0.028788754       2.2644222       2.9022212      -21.976237
       45.390000    -0.041987987    -0.028780296       2.3084938       2.9938032      -22.890928
       46.280000    -0.042287185    -0.028768223       2.3524924       3.0883157      -23.826040
       47.170000    -0.042572638    -0.028752470       2.3964162       3.1859496      -24.781729
       48.060000    -0.042843423    -0.028732988       2.4402638       3.2869116      -25.758156
       48.950000    -0.043098623    -0.028709742       2.4840335       3.3914262      -26.755488
       49.840000    -0.043337325    -0.028682713       2.5277239       3.4997374      -27.773898
       50.730000    -0.043558624    -0.028651899       2.5713332       3.6121111      -28.813563
       51.620000    -0.043761624    -0.028617319       2.6148599       3.7288378      -29.874668
       52.510000    -0.043945440    -0.028579009       2.6583023       3.8502350      -30.957401
       53.400000    -0.044109199    -0.028537028       2.7016588       3.9766511      -32.061959
       54.290000    -0.044252044    -0.028491460       2.7449278       4.1084687      -33.188545
       55.180000    -0.044373134    -0.028442411       2.7881074       4.2461096      -34.337367
       56.070000    -0.044471646    -0.028390015       2.8311960       4.3900393      -35.508642
       56.960000    -0.044546779    -0.028334433       2.8741918       4.5407734      -36.702593
       57.850000    -0.044597757    -0.028275857       2.9170931       4.6988842      -37.919450
       58.740000    -0.044623826    -0.028214511       2.9598982       4.8650089      -39.159450
       59.630000    -0.044624265    -0.028150651       3.0026050       5.0398592      -40.422840
       60.520000    -0.044598382    -0.028084573       3.0452118       5.2242326      -41.709872
       61.410000    -0.044545519    -0.028016608       3.0877168       5.4190254      -43.020810
       62.300000    -0.044465056    -0.027947130       3.1301179       5.6252490      -44.355923
       63.190000    -0.044356413    -0.027876555       3.1724132       5.8440486      -45.715490
       64.080000    -0.044219055    -0.027805347       3.2146006       6.0767268      -47.099800
       64.970000    -0.044052493    -0.027734017       3.2566781       6.3247707      -48.509151
       65.860000    -0.043856288    -0.027663131       3.2986437       6.5898868      -49.943850
       66.750000    -0.043630059    -0.027593308       3.3404950       6.8740425      -51.404214
       67.640000    -0.043373481    -0.027525227       3.3822299       7.1795181      -52.890572
       68.530000    -0.043086294    -0.027459628       3.4238461       7.5089715      -54.403262
       69.420000    -0.042768306    -0.027397318       3.4653412       7.8655206      -55.942633
       70.310000    -0.042419395    -0.027339176       3.5067129       8.2528460      -57.509048
       71.200000    -0.042039521    -0.027286155       3.5479585       8.6753256      -59.102878
       72.090000    -0.041628723    -0.027239285       3.5890755       9.1382067      -60.724509
       72.980000    -0.041187131    -0.027199683       3.6300613       9.6478339      -62.374339
       73.870000    -0.040714968    -0.027168555       3.6709130       10.211952      -64.052778
       74.760000    -0.040212560    -0.027147202       3.7116278       10.840114      -65.760251
       75.650000    -0.039680337    -0.027137027       3.7522026       11.544243      -67.497196
       76.540000    -0.039118845    -0.027139539       3.7926344       12.339414      -69.264065
       77.430000    -0.038528751    -0.027156364       3.8329199       13.244974      -71.061326
       78.320000    -0.037910851    -0.027189247       3.8730557       14.286163      -72.889461
       79.210000    -0.037266078    -0.027240065       3.9130384       15.496548      -74.748968
       80.100000    -0.036595508    -0.027310831       3.9528642       16.921771      -76.640363
       80.990000    -0.035900375    -0.027403707       3.9925292       18.625500      -78.564176
       81.880000    -0.035182073    -0.027521012       4.0320295       20.699321      -80.520957
       82.770000    -0.034442169    -0.027665228       4.0713608       23.279914      -82.511272
       83.660000    -0.033682415    -0.027839021       4.1105186       26.580706      -84.535706
       84.550000    -0.032904755    -0.028045242       4.1494982       30.954536      -86.594862
       85.440000    -0.032111338    -0.028286948       4.1882948       37.029704      -88.689365
       86.330000    -0.031304529    -0.028567410       4.2269030       46.043975      -90.819856
       87.220000    -0.030486922    -0.028890131       4.2653176       60.820167      -92.987001
       88.110000    -0.029661350    -0.029258862       4.3035325       89.498144      -95.191484
       89.000000    -0.028830904    -0.029677615       4.3415418       169.19569      -97.434012

Table series: Data for wavelength : 0.587562 µm.
   Y Angle (deg)       Tan Shift       Sag Shift     Real Height     Ref. Height      Distortion
  --------------  --------------  --------------  --------------  --------------  --------------
      0.00000000 -2.4460692E-003 -2.4460692E-003      0.00000000      0.00000000      0.00000000
      0.89000000 -2.4600803E-003 -2.4487411E-003     0.045938563     0.045942497 -8.5624340E-003
       1.7800000 -2.5002899E-003 -2.4567534E-003     0.091875695     0.091907174    -0.034250792
       2.6700000 -2.5666587E-003 -2.4700954E-003      0.13780996      0.13791625    -0.077068239
       3.5600000 -2.6591218E-003 -2.4887491E-003      0.18373994      0.18399204     -0.13702005
       4.4500000 -2.7775884E-003 -2.5126898E-003      0.22966418      0.23015698     -0.21411363
       5.3400000 -2.9219419E-003 -2.5418854E-003      0.27558127      0.27643367     -0.30835848
       6.2300000 -3.0920402E-003 -2.5762969E-003      0.32148976      0.32284496     -0.41976626
       7.1200000 -3.2877155E-003 -2.6158786E-003      0.36738824      0.36941392     -0.54835075
       8.0100000 -3.5087748E-003 -2.6605777E-003      0.41327525      0.41616396     -0.69412790
       8.9000000 -3.7549995E-003 -2.7103347E-003      0.45914938      0.46311885     -0.85711580
       9.7900000 -4.0261460E-003 -2.7650836E-003      0.50500919      0.51030274      -1.0373348
       10.680000 -4.3219456E-003 -2.8247515E-003      0.55085325      0.55774027      -1.2348072
       11.570000 -4.6421050E-003 -2.8892595E-003      0.59668012      0.60545657      -1.4495579
       12.460000 -4.9863059E-003 -2.9585221E-003      0.64248838      0.65347734      -1.6816137
       13.350000 -5.3542059E-003 -3.0324481E-003      0.68827658      0.70182892      -1.9310039
       14.240000 -5.7454383E-003 -3.1109398E-003      0.73404329      0.75053832      -2.1977598
       15.130000 -6.1596124E-003 -3.1938942E-003      0.77978709      0.79963331      -2.4819153
       16.020000 -6.5963140E-003 -3.2812024E-003      0.82550653      0.84914247      -2.7835064
       16.910000 -7.0551053E-003 -3.3727505E-003      0.87120018      0.89909526      -3.1025717
       17.800000 -7.5355256E-003 -3.4684191E-003      0.91686661      0.94952212      -3.4391520
       18.690000 -8.0370915E-003 -3.5680840E-003      0.96250438       1.0004545      -3.7932905
       19.580000 -8.5592969E-003 -3.6716164E-003       1.0081120       1.0519251      -4.1650331
       20.470000 -9.1016140E-003 -3.7788831E-003       1.0536882       1.1039676      -4.5544280
       21.360000 -9.6634932E-003 -3.8897467E-003       1.0992313       1.1566172      -4.9615260
       22.250000    -0.010244363 -4.0040661E-003       1.1447401       1.2099105      -5.3863805
       23.140000    -0.010843633 -4.1216967E-003       1.1902130       1.2638855      -5.8290475
       24.030000    -0.011460690 -4.2424906E-003       1.2356486       1.3185819      -6.2895858
       24.920000    -0.012094902 -4.3662970E-003       1.2810455       1.3740414      -6.7680567
       25.810000    -0.012745618 -4.4929628E-003       1.3264022       1.4303072      -7.2645246
       26.700000    -0.013412167 -4.6223329E-003       1.3717172       1.4874248      -7.7790564
       27.590000    -0.014093861 -4.7542503E-003       1.4169892       1.5454421      -8.3117222
       28.480000    -0.014789991 -4.8885568E-003       1.4622167       1.6044090      -8.8625948
       29.370000    -0.015499835 -5.0250933E-003       1.5073982       1.6643782      -9.4317501
       30.260000    -0.016222651 -5.1637003E-003       1.5525323       1.7254053      -10.019267
       31.150000    -0.016957682 -5.3042186E-003       1.5976176       1.7875487      -10.625228
       32.040000    -0.017704155 -5.4464894E-003       1.6426525       1.8508702      -11.249719
       32.930000    -0.018461284 -5.5903550E-003       1.6876356       1.9154350      -11.892827
       33.820000    -0.019228266 -5.7356594E-003       1.7325655       1.9813122      -12.554646
       34.710000    -0.020004286 -5.8822489E-003       1.7774406       2.0485751      -13.235271
       35.600000    -0.020788518 -6.0299726E-003       1.8222596       2.1173013      -13.934800
       36.490000    -0.021580121 -6.1786828E-003       1.8670209       2.1875734      -14.653337
       37.380000    -0.022378244 -6.3282361E-003       1.9117231       2.2594793      -15.390988
       38.270000    -0.023182026 -6.4784939E-003       1.9563647       2.3331125      -16.147863
       39.160000    -0.023990597 -6.6293231E-003       2.0009441       2.4085729      -16.924077
       40.050000    -0.024803078 -6.7805963E-003       2.0454600       2.4859671      -17.719748
       40.940000    -0.025618580 -6.9321937E-003       2.0899108       2.5654094      -18.534998
       41.830000    -0.026436212 -7.0840030E-003       2.1342950       2.6470220      -19.369955
       42.720000    -0.027255073 -7.2359202E-003       2.1786112       2.7309361      -20.224748
       43.610000    -0.028074258 -7.3878513E-003       2.2228577       2.8172928      -21.099515
       44.500000    -0.028892861 -7.5397125E-003       2.2670330       2.9062437      -21.994394
       45.390000    -0.029709969 -7.6914309E-003       2.3111358       2.9979527      -22.909531
       46.280000    -0.030524671 -7.8429465E-003       2.3551642       3.0925962      -23.845077
       47.170000    -0.031336055 -7.9942126E-003       2.3991170       3.1903654      -24.801185
       48.060000    -0.032143208 -8.1451966E-003       2.4429924       3.2914673      -25.778016
       48.950000    -0.032945220 -8.2958818E-003       2.4867889       3.3961268      -26.775735
       49.840000    -0.033741184 -8.4462682E-003       2.5305049       3.5045881      -27.794514
       50.730000    -0.034530200 -8.5963738E-003       2.5741388       3.6171176      -28.834530
       51.620000    -0.035311371 -8.7462361E-003       2.6176890       3.7340061      -29.895964
       52.510000    -0.036083807 -8.8959131E-003       2.6611538       3.8555716      -30.979006
       53.400000    -0.036846630 -9.0454852E-003       2.7045317       3.9821628      -32.083850
       54.290000    -0.037598970 -9.1950563E-003       2.7478209       4.1141632      -33.210697
       55.180000    -0.038339969 -9.3447556E-003       2.7910198       4.2519949      -34.359756
       56.070000    -0.039068784 -9.4947393E-003       2.8341266       4.3961241      -35.531242
       56.960000    -0.039784585 -9.6451921E-003       2.8771396       4.5470670      -36.725375
       57.850000    -0.040486561 -9.7963294E-003       2.9200571       4.7053969      -37.942386
       58.740000    -0.041173917 -9.9483989E-003       2.9628772       4.8717519      -39.182510
       59.630000    -0.041845883    -0.010101683       3.0055982       5.0468446      -40.445993
       60.520000    -0.042501706    -0.010256500       3.0482182       5.2314735      -41.733086
       61.410000    -0.043140662    -0.010413208       3.0907353       5.4265363      -43.044050
       62.300000    -0.043762050    -0.010572206       3.1331476       5.6330457      -44.379155
       63.190000    -0.044365198    -0.010733938       3.1754532       5.8521487      -45.738679
       64.080000    -0.044949467    -0.010898891       3.2176500       6.0851493      -47.122908
       64.970000    -0.045514248    -0.011067605       3.2597360       6.3335370      -48.532140
       65.860000    -0.046058968    -0.011240670       3.3017091       6.5990206      -49.966681
       66.750000    -0.046583090    -0.011418732       3.3435671       6.8835701      -51.426846
       67.640000    -0.047086119    -0.011602497       3.3853079       7.1894691      -52.912964
       68.530000    -0.047567599    -0.011792732       3.4269292       7.5193792      -54.425371
       69.420000    -0.048027122    -0.011990269       3.4684286       7.8764224      -55.964416
       70.310000    -0.048464322    -0.012196011       3.5098038       8.2642847      -57.530459
       71.200000    -0.048878887    -0.012410936       3.5510522       8.6873499      -59.123873
       72.090000    -0.049270554    -0.012636100       3.5921713       9.1508725      -60.745041
       72.980000    -0.049639115    -0.012872642       3.6331584       9.6612061      -62.394359
       73.870000    -0.049984418    -0.013121789       3.6740108       10.226106      -64.072239
       74.760000    -0.050306372    -0.013384864       3.7147257       10.855138      -65.779104
       75.650000    -0.050604945    -0.013663288       3.7553000       11.560243      -67.515390
       76.540000    -0.050880172    -0.013958588       3.7957307       12.356517      -69.281549
       77.430000    -0.051132152    -0.014272404       3.8360145       13.263332      -71.078048
       78.320000    -0.051361052    -0.014606494       3.8761482       14.305964      -72.905368
       79.210000    -0.051567110    -0.014962745       3.9161281       15.518027      -74.764008
       80.100000    -0.051750636    -0.015343176       3.9559507       16.945225      -76.654480
       80.990000    -0.051912011    -0.015749953       3.9956121       18.651315      -78.577317
       81.880000    -0.052051694    -0.016185392       4.0351083       20.728011      -80.533065
       82.770000    -0.052170215    -0.016651970       4.0744351       23.312181      -82.522291
       83.660000    -0.052268181    -0.017152342       4.1135879       26.617548      -84.545579
       84.550000    -0.052346272    -0.017689341       4.1525622       30.997440      -86.603532
       85.440000    -0.052405243    -0.018266001       4.1913530       37.081028      -88.696772
