Results for:	
File:	C:\Users\User\OneDrive - Massachusetts Institute of Technology\Documents\MIT\Grad School\Classes\2.156\Lens Project\Prime Lenses\US04273415-1.ZMX
Title:	
Date:	11/7/2025 5:45:55 PM

0 message(s) in output.
3 series table(s) in output.

Table series: Data for wavelength : 0.486133 µm.
        Y Height       Tan Shift       Sag Shift     Real Height     Ref. Height      Distortion
  --------------  --------------  --------------  --------------  --------------  --------------
      0.00000000     0.056018697     0.056018697      0.00000000      0.00000000      0.00000000
      0.67760000     0.056016958     0.056005892      0.13559890      0.13559890 -4.5235329E-006
       1.3552000     0.056012465     0.055967482      0.27119777      0.27119781 -1.4684693E-005
       2.0328000     0.056005222     0.055903485      0.40679658      0.40679671 -3.1616145E-005
       2.7104000     0.055995239     0.055813929      0.54239531      0.54239561 -5.5300854E-005
       3.3880000     0.055982526     0.055698854      0.67799394      0.67799452 -8.5760644E-005
       4.0656000     0.055967100     0.055558311      0.81359242      0.81359342 -1.2298202E-004
       4.7432000     0.055948979     0.055392364      0.94919074      0.94919233 -1.6697096E-004
       5.4208000     0.055928185     0.055201087       1.0847889       1.0847912 -2.1773208E-004
       6.0984000     0.055904743     0.054984566       1.2203868       1.2203901 -2.7525800E-004
       6.7760000     0.055878682     0.054742898       1.3559844       1.3559890 -3.3955466E-004
       7.4536000     0.055850035     0.054476191       1.4915818       1.4915879 -4.1061835E-004
       8.1312000     0.055818836     0.054184565       1.6271789       1.6271868 -4.8845095E-004
       8.8088000     0.055785127     0.053868153       1.7627756       1.7627857 -5.7305287E-004
       9.4864000     0.055748948     0.053527096       1.8983720       1.8983847 -6.6442631E-004
       10.164000     0.055710347     0.053161549       2.0339680       2.0339836 -7.6257005E-004
       10.841600     0.055669373     0.052771677       2.1695636       2.1695825 -8.6748237E-004
       11.519200     0.055626080     0.052357659       2.3051588       2.3051814 -9.7916538E-004
       12.196800     0.055580525     0.051919681       2.4407535       2.4407803 -1.0976195E-003
       12.874400     0.055532768     0.051457944       2.5763477       2.5763792 -1.2228450E-003
       13.552000     0.055482875     0.050972658       2.7119413       2.7119781 -1.3548424E-003
       14.229600     0.055430913     0.050464047       2.8475344       2.8475770 -1.4936121E-003
       14.907200     0.055376954     0.049932343       2.9831270       2.9831759 -1.6391546E-003
       15.584800     0.055321074     0.049377792       3.1187189       3.1187748 -1.7914702E-003
       16.262400     0.055263353     0.048800650       3.2543102       3.2543737 -1.9505594E-003
       16.940000     0.055203875     0.048201186       3.3899008       3.3899726 -2.1164226E-003
       17.617600     0.055142727     0.047579676       3.5254908       3.5255715 -2.2890604E-003
       18.295200     0.055080001     0.046936413       3.6610800       3.6611704 -2.4684731E-003
       18.972800     0.055015793     0.046271698       3.7966685       3.7967693 -2.6546613E-003
       19.650400     0.054950203     0.045585842       3.9322562       3.9323682 -2.8476254E-003
       20.328000     0.054883334     0.044879170       4.0678431       4.0679671 -3.0473658E-003
       21.005600     0.054815296     0.044152017       4.2034292       4.2035660 -3.2538829E-003
       21.683200     0.054746201     0.043404729       4.3390145       4.3391649 -3.4671773E-003
       22.360800     0.054676166     0.042637664       4.4745988       4.4747638 -3.6872493E-003
       23.038400     0.054605313     0.041851191       4.6101823       4.6103627 -3.9140994E-003
       23.716000     0.054533768     0.041045688       4.7457648       4.7459616 -4.1477280E-003
       24.393600     0.054461663     0.040221547       4.8813463       4.8815605 -4.3881353E-003
       25.071200     0.054389132     0.039379171       5.0169269       5.0171594 -4.6353219E-003
       25.748800     0.054316316     0.038518971       5.1525064       5.1527583 -4.8892880E-003
       26.426400     0.054243360     0.037641373       5.2880849       5.2883572 -5.1500339E-003
       27.104000     0.054170415     0.036746810       5.4236623       5.4239561 -5.4175599E-003
       27.781600     0.054097635     0.035835731       5.5592386       5.5595551 -5.6918663E-003
       28.459200     0.054025181     0.034908590       5.6948138       5.6951540 -5.9729533E-003
       29.136800     0.053953219     0.033965858       5.8303878       5.8307529 -6.2608210E-003
       29.814400     0.053881918     0.033008013       5.9659606       5.9663518 -6.5554697E-003
       30.492000     0.053811457     0.032035545       6.1015323       6.1019507 -6.8568993E-003
       31.169600     0.053742015     0.031048955       6.2371026       6.2375496 -7.1651100E-003
       31.847200     0.053673781     0.030048755       6.3726718       6.3731485 -7.4801018E-003
       32.524800     0.053606948     0.029035468       6.5082396       6.5087474 -7.8018745E-003
       33.202400     0.053541713     0.028009628       6.6438061       6.6443463 -8.1304282E-003
       33.880000     0.053478284     0.026971778       6.7793712       6.7799452 -8.4657626E-003
       34.557600     0.053416869     0.025922475       6.9149350       6.9155441 -8.8078775E-003
       35.235200     0.053357686     0.024862284       7.0504973       7.0511430 -9.1567727E-003
       35.912800     0.053300958     0.023791783       7.1860583       7.1867419 -9.5124477E-003
       36.590400     0.053246914     0.022711558       7.3216177       7.3223408 -9.8749022E-003
       37.268000     0.053195792     0.021622208       7.4571757       7.4579397    -0.010244136
       37.945600     0.053147832     0.020524343       7.5927322       7.5935386    -0.010620147
       38.623200     0.053103285     0.019418581       7.7282871       7.7291375    -0.011002937
       39.300800     0.053062407     0.018305553       7.8638404       7.8647364    -0.011392503
       39.978400     0.053025462     0.017185900       7.9993922       8.0003353    -0.011788846
       40.656000     0.052992719     0.016060273       8.1349423       8.1359342    -0.012191964
       41.333600     0.052964456     0.014929335       8.2704908       8.2715331    -0.012601856
       42.011200     0.052940958     0.013793757       8.4060375       8.4071320    -0.013018521
       42.688800     0.052922518     0.012654224       8.5415826       8.5427309    -0.013441958
       43.366400     0.052909436     0.011511429       8.6771260       8.6783298    -0.013872166
       44.044000     0.052902020     0.010366075       8.8126675       8.8139287    -0.014309143
       44.721600     0.052900586  9.2188771E-003       8.9482073       8.9495276    -0.014752887
       45.399200     0.052905459  8.0705605E-003       9.0837453       9.0851266    -0.015203398
       46.076800     0.052916970  6.9218603E-003       9.2192814       9.2207255    -0.015660672
       46.754400     0.052935461  5.7735221E-003       9.3548157       9.3563244    -0.016124709
       47.432000     0.052961281  4.6263018E-003       9.4903480       9.4919233    -0.016595506
       48.109600     0.052994789  3.4809656E-003       9.6258785       9.6275222    -0.017073061
       48.787200     0.053036351  2.3382902E-003       9.7614069       9.7631211    -0.017557372
       49.464800     0.053086343  1.1990622E-003       9.8969334       9.8987200    -0.018048437
       50.142400     0.053145152  6.4078653E-005       10.032458       10.034319    -0.018546252
       50.820000     0.053213172 -1.0658532E-003       10.167980       10.169918    -0.019050816
       51.497600     0.053290808 -2.1899161E-003       10.303501       10.305517    -0.019562124
       52.175200     0.053378474 -3.3072824E-003       10.439019       10.441116    -0.020080175
       52.852800     0.053476594 -4.4171146E-003       10.574535       10.576714    -0.020604966
       53.530400     0.053585602 -5.5185650E-003       10.710049       10.712313    -0.021136492
       54.208000     0.053705944 -6.6107758E-003       10.845561       10.847912    -0.021674750
       54.885600     0.053838074 -7.6928791E-003       10.981071       10.983511    -0.022219737
       55.563200     0.053982458 -8.7639973E-003       11.116578       11.119110    -0.022771449
       56.240800     0.054139573 -9.8232424E-003       11.252083       11.254709    -0.023329882
       56.918400     0.054309908    -0.010869717       11.387586       11.390308    -0.023895032
       57.596000     0.054493961    -0.011902513       11.523087       11.525907    -0.024466895
       58.273600     0.054692243    -0.012920712       11.658585       11.661506    -0.025045465
       58.951200     0.054905276    -0.013923389       11.794081       11.797105    -0.025630739
       59.628800     0.055133595    -0.014909604       11.929574       11.932704    -0.026222711
       60.306400     0.055377745    -0.015878411       12.065066       12.068302    -0.026821377
       60.984000     0.055638287    -0.016828853       12.200554       12.203901    -0.027426731
       61.661600     0.055915791    -0.017759964       12.336040       12.339500    -0.028038767
       62.339200     0.056210841    -0.018670766       12.471524       12.475099    -0.028657481
       63.016800     0.056524034    -0.019560274       12.607005       12.610698    -0.029282866
       63.694400     0.056855980    -0.020427491       12.742484       12.746297    -0.029914916
       64.372000     0.057207304    -0.021271412       12.877960       12.881896    -0.030553625
       65.049600     0.057578642    -0.022091021       13.013433       13.017495    -0.031198987
       65.727200     0.057970646    -0.022885295       13.148904       13.153094    -0.031850994
       66.404800     0.058383981    -0.023653197       13.284372       13.288693    -0.032509641
       67.082400     0.058819327    -0.024393684       13.419838       13.424291    -0.033174919
       67.760000     0.059277379    -0.025105703       13.555301       13.559890    -0.033846822

Table series: Data for wavelength : 0.587562 µm.
        Y Height       Tan Shift       Sag Shift     Real Height     Ref. Height      Distortion
  --------------  --------------  --------------  --------------  --------------  --------------
      0.00000000      0.11267652      0.11267652      0.00000000      0.00000000      0.00000000
      0.67760000      0.11267152      0.11266123      0.13560427      0.13560427 -3.1327916E-006
       1.3552000      0.11265735      0.11261537      0.27120851      0.27120855 -1.2641180E-005
       2.0328000      0.11263400      0.11253896      0.40681270      0.40681282 -2.8488630E-005
       2.7104000      0.11260149      0.11243202      0.54241682      0.54241709 -5.0664793E-005
       3.3880000      0.11255983      0.11229460      0.67802083      0.67802136 -7.9168204E-005
       4.0656000      0.11250903      0.11212675      0.81362471      0.81362564 -1.1401272E-004
       4.7432000      0.11244911      0.11192852      0.94922843      0.94922991 -1.5518645E-004
       5.4208000      0.11238009      0.11170000       1.0848320       1.0848342 -2.0269273E-004
       6.0984000      0.11230200      0.11144126       1.2204353       1.2204385 -2.5654107E-004
       6.7760000      0.11221487      0.11115241       1.3560384       1.3560427 -3.1671777E-004
       7.4536000      0.11211872      0.11083356       1.4916413       1.4916470 -3.8323366E-004
       8.1312000      0.11201359      0.11048481       1.6272438       1.6272513 -4.5608039E-004
       8.8088000      0.11189952      0.11010631       1.7628461       1.7628555 -5.3526184E-004
       9.4864000      0.11177656      0.10969820       1.8984480       1.8984598 -6.2078140E-004
       10.164000      0.11164474      0.10926062       2.0340496       2.0340641 -7.1263646E-004
       10.841600      0.11150413      0.10879375       2.1696508       2.1696684 -8.1082331E-004
       11.519200      0.11135475      0.10829776       2.3052515       2.3052726 -9.1534510E-004
       12.196800      0.11119669      0.10777284       2.4408519       2.4408769 -1.0262018E-003
       12.874400      0.11102999      0.10721918       2.5764517       2.5764812 -1.1433936E-003
       13.552000      0.11085472      0.10663700       2.7120511       2.7120855 -1.2669203E-003
       14.229600      0.11067094      0.10602652       2.8476499       2.8476897 -1.3967821E-003
       14.907200      0.11047873      0.10538796       2.9832483       2.9832940 -1.5329789E-003
       15.584800      0.11027815      0.10472159       3.1188460       3.1188983 -1.6755106E-003
       16.262400      0.11006930      0.10402764       3.2544432       3.2545025 -1.8243774E-003
       16.940000      0.10985225      0.10330639       3.3900397       3.3901068 -1.9795790E-003
       17.617600      0.10962708      0.10255811       3.5256356       3.5257111 -2.1411155E-003
       18.295200      0.10939389      0.10178309       3.6612308       3.6613154 -2.3089868E-003
       18.972800      0.10915276      0.10098164       3.7968253       3.7969196 -2.4831928E-003
       19.650400      0.10890381      0.10015406       3.9324192       3.9325239 -2.6637333E-003
       20.328000      0.10864713     0.099300677       4.0680122       4.0681282 -2.8506083E-003
       21.005600      0.10838282     0.098421822       4.2036045       4.2037324 -3.0438174E-003
       21.683200      0.10811099     0.097517841       4.3391960       4.3393367 -3.2433606E-003
       22.360800      0.10783177     0.096589089       4.4747866       4.4749410 -3.4492376E-003
       23.038400      0.10754527     0.095635934       4.6103765       4.6105453 -3.6614480E-003
       23.716000      0.10725162     0.094658753       4.7459654       4.7461495 -3.8799917E-003
       24.393600      0.10695094     0.093657935       4.8815534       4.8817538 -4.1048682E-003
       25.071200      0.10664336     0.092633879       5.0171405       5.0173581 -4.3360772E-003
       25.748800      0.10632902     0.091586998       5.1527267       5.1529624 -4.5736182E-003
       26.426400      0.10600807     0.090517712       5.2883119       5.2885666 -4.8174907E-003
       27.104000      0.10568065     0.089426455       5.4238960       5.4241709 -5.0676943E-003
       27.781600      0.10534692     0.088313671       5.5594792       5.5597752 -5.3242283E-003
       28.459200      0.10500702     0.087179814       5.6950612       5.6953794 -5.5870921E-003
       29.136800      0.10466113     0.086025350       5.8306422       5.8309837 -5.8562849E-003
       29.814400      0.10430941     0.084850755       5.9662221       5.9665880 -6.1318062E-003
       30.492000      0.10395203     0.083656518       6.1018009       6.1021923 -6.4136549E-003
       31.169600      0.10358917     0.082443136       6.2373785       6.2377965 -6.7018303E-003
       31.847200      0.10322101     0.081211118       6.3729549       6.3734008 -6.9963313E-003
       32.524800      0.10284775     0.079960984       6.5085301       6.5090051 -7.2971570E-003
       33.202400      0.10246957     0.078693266       6.6441041       6.6446094 -7.6043062E-003
       33.880000      0.10208667     0.077408504       6.7796768       6.7802136 -7.9177778E-003
       34.557600      0.10169928     0.076107250       6.9152482       6.9158179 -8.2375705E-003
       35.235200      0.10130758     0.074790067       7.0508183       7.0514222 -8.5636829E-003
       35.912800      0.10091181     0.073457530       7.1863871       7.1870264 -8.8961136E-003
       36.590400      0.10051218     0.072110221       7.3219545       7.3226307 -9.2348611E-003
       37.268000      0.10010894     0.070748736       7.4575205       7.4582350 -9.5799237E-003
       37.945600     0.099702306     0.069373680       7.5930851       7.5938393 -9.9312997E-003
       38.623200     0.099292533     0.067985669       7.7286483       7.7294435    -0.010288987
       39.300800     0.098879868     0.066585329       7.8642099       7.8650478    -0.010652985
       39.978400     0.098464569     0.065173297       7.9997701       8.0006521    -0.011023289
       40.656000     0.098046901     0.063750221       8.1353288       8.1362564    -0.011399900
       41.333600     0.097627133     0.062316759       8.2708860       8.2718606    -0.011782813
       42.011200     0.097205544     0.060873579       8.4064415       8.4074649    -0.012172027
       42.688800     0.096782420     0.059421359       8.5419955       8.5430692    -0.012567540
       43.366400     0.096358053     0.057960790       8.6775479       8.6786734    -0.012969348
       44.044000     0.095932745     0.056492569       8.8130986       8.8142777    -0.013377449
       44.721600     0.095506804     0.055017408       8.9486476       8.9498820    -0.013791840
       45.399200     0.095080545     0.053536025       9.0841950       9.0854863    -0.014212518
       46.076800     0.094654294     0.052049152       9.2197406       9.2210905    -0.014639479
       46.754400     0.094228382     0.050557529       9.3552845       9.3566948    -0.015072722
       47.432000     0.093803151     0.049061907       9.4908266       9.4922991    -0.015512241
       48.109600     0.093378949     0.047563046       9.6263669       9.6279034    -0.015958033
       48.787200     0.092956135     0.046061718       9.7619054       9.7635076    -0.016410095
       49.464800     0.092535075     0.044558703       9.8974421       9.8991119    -0.016868422
       50.142400     0.092116145     0.043054794       10.032977       10.034716    -0.017333011
       50.820000     0.091699730     0.041550792       10.168510       10.170320    -0.017803858
       51.497600     0.091286223     0.040047508       10.304041       10.305925    -0.018280957
       52.175200     0.090876029     0.038545762       10.439570       10.441529    -0.018764304
       52.852800     0.090469560     0.037046388       10.575097       10.577133    -0.019253895
       53.530400     0.090067239     0.035550225       10.710622       10.712738    -0.019749724
       54.208000     0.089669500     0.034058126       10.846145       10.848342    -0.020251787
       54.885600     0.089276785     0.032570951       10.981666       10.983946    -0.020760077
       55.563200     0.088889549     0.031089571       11.117185       11.119550    -0.021274591
       56.240800     0.088508255     0.029614867       11.252702       11.255155    -0.021795321
       56.918400     0.088133377     0.028147730       11.388216       11.390759    -0.022322262
       57.596000     0.087765403     0.026689061       11.523729       11.526363    -0.022855408
       58.273600     0.087404827     0.025239768       11.659239       11.661967    -0.023394752
       58.951200     0.087052160     0.023800772       11.794747       11.797572    -0.023940288
       59.628800     0.086707919     0.022373003       11.930253       11.933176    -0.024492010
       60.306400     0.086372637     0.020957399       12.065757       12.068780    -0.025049910
       60.984000     0.086046856     0.019554910       12.201259       12.204385    -0.025613982
       61.661600     0.085731133     0.018166495       12.336758       12.339989    -0.026184217
       62.339200     0.085426034     0.016793120       12.472255       12.475593    -0.026760609
       63.016800     0.085132140     0.015435763       12.607749       12.611197    -0.027343149
       63.694400     0.084850044     0.014095413       12.743241       12.746802    -0.027931829
       64.372000     0.084580352     0.012773064       12.878731       12.882406    -0.028526642
       65.049600     0.084323683     0.011469724       13.014218       13.018010    -0.029127579
