Results for:	
File:	C:\Users\User\OneDrive - Massachusetts Institute of Technology\Documents\MIT\Grad School\Classes\2.156\Lens Project\Prime Lenses\US07773305-1.ZMX
Title:	
Date:	11/7/2025 5:48:49 PM

0 message(s) in output.
3 series table(s) in output.

Table series: Data for wavelength : 0.486133 µm.
   Y Angle (deg)       Tan Shift       Sag Shift     Real Height     Ref. Height      Distortion
  --------------  --------------  --------------  --------------  --------------  --------------
      0.00000000     0.066896109     0.066896109      0.00000000      0.00000000      0.00000000
      0.89000000     0.066830467     0.066864237     0.024880749     0.024883522    -0.011142806
       1.7800000     0.066627952     0.066768724     0.049756863     0.049779056    -0.044583052
       2.6700000     0.066289646     0.066609887     0.074623706     0.074698640     -0.10031451
       3.5600000     0.065817346     0.066388250     0.099476638     0.099654355     -0.17833371
       4.4500000     0.065213561     0.066104544      0.12431101      0.12465836     -0.27863574
       5.3400000     0.064481484     0.065759704      0.14912218      0.14972289     -0.40121420
       6.2300000     0.063624973     0.065354862      0.17390547      0.17486031     -0.54606107
       7.1200000     0.062648520     0.064891347      0.19865622      0.20008314     -0.71316668
       8.0100000     0.061557219     0.064370675      0.22336974      0.22540405     -0.90251955
       8.9000000     0.060356725     0.063794547      0.24804133      0.25083591      -1.1141063
       9.7900000     0.059053217     0.063164835      0.27266628      0.27639180      -1.3479115
       10.680000     0.057653349     0.062483581      0.29723987      0.30208506      -1.6039176
       11.570000     0.056164202     0.061752984      0.32175734      0.32792931      -1.8821044
       12.460000     0.054593235     0.060975393      0.34621395      0.35393848      -2.1824496
       13.350000     0.052948232     0.060153296      0.37060491      0.38012682      -2.5049279
       14.240000     0.051237246     0.059289312      0.39492544      0.40650896      -2.8495112
       15.130000     0.049468546     0.058386175      0.41917072      0.43309994      -3.2161681
       16.020000     0.047650556     0.057446729      0.44333593      0.45991525      -3.6048643
       16.910000     0.045791807     0.056473915      0.46741622      0.48697084      -4.0155616
       17.800000     0.043900873     0.055470757      0.49140675      0.51428319      -4.4482184
       18.690000     0.041986322     0.054440351      0.51530265      0.54186936      -4.9027890
       19.580000     0.040056660     0.053385857      0.53909904      0.56974701      -5.3792237
       20.470000     0.038120277     0.052310480      0.56279103      0.59793444      -5.8774684
       21.360000     0.036185403     0.051217464      0.58637373      0.62645069      -6.3974644
       22.250000     0.034260056     0.050110079      0.60984224      0.65531556      -6.9391486
       23.140000     0.032352000     0.048991606      0.63319166      0.68454967      -7.5024528
       24.030000     0.030468702     0.047865327      0.65641708      0.71417455      -8.0873037
       24.920000     0.028617295     0.046734518      0.67951362      0.74421266      -8.6936228
       25.810000     0.026804547     0.045602429      0.70247637      0.77468753      -9.3213263
       26.700000     0.025036825     0.044472281      0.72530047      0.80562378      -9.9703249
       27.590000     0.023320072     0.043347253      0.74798105      0.83704726      -10.640523
       28.480000     0.021659782     0.042230469      0.77051327      0.86898510      -11.331821
       29.370000     0.020060987     0.041124995      0.79289229      0.90146584      -12.044111
       30.260000     0.018528237     0.040033822      0.81511333      0.93451952      -12.777282
       31.150000     0.017065591     0.038959863      0.83717161      0.96817782      -13.531213
       32.040000     0.015676613     0.037905944      0.85906242       1.0024742      -14.305782
       32.930000     0.014364368     0.036874793      0.88078106       1.0374440      -15.100856
       33.820000     0.013131427     0.035869039      0.90232289       1.0731246      -15.916299
       34.710000     0.011979867     0.034891198      0.92368332       1.1095557      -16.751969
       35.600000     0.010911283     0.033943676      0.94485779       1.1467795      -17.607715
       36.490000  9.9268010E-003     0.033028754      0.96584184       1.1848405      -18.483385
       37.380000  9.0270918E-003     0.032148592      0.98663105       1.2237863      -19.378815
       38.270000  8.2123898E-003     0.031305220       1.0072211       1.2636678      -20.293841
       39.160000  7.4825133E-003     0.030500533       1.0276076       1.3045389      -21.228289
       40.050000  6.8368881E-003     0.029736294       1.0477865       1.3464574      -22.181981
       40.940000  6.2745721E-003     0.029014124       1.0677536       1.3894852      -23.154735
       41.830000  5.7942820E-003     0.028335507       1.0875049       1.4336885      -24.146361
       42.720000  5.3944217E-003     0.027701783       1.1070364       1.4791383      -25.156666
       43.610000  5.0731110E-003     0.027114148       1.1263444       1.5259111      -26.185450
       44.500000  4.8282158E-003     0.026573656       1.1454250       1.5740890      -27.232512
       45.390000  4.6573786E-003     0.026081215       1.1642747       1.6237607      -28.297643
       46.280000  4.5580487E-003     0.025637589       1.1828898       1.6750218      -29.380631
       47.170000  4.5275125E-003     0.025243397       1.2012670       1.7279759      -30.481261
       48.060000  4.5629238E-003     0.024899116       1.2194030       1.7827350      -31.599313
       48.950000  4.6613325E-003     0.024605079       1.2372945       1.8394210      -32.734564
       49.840000  4.8197132E-003     0.024361475       1.2549386       1.8981662      -33.886790
       50.730000  5.0349921E-003     0.024168355       1.2723322       1.9591148      -35.055762
       51.620000  5.3040725E-003     0.024025630       1.2894725       2.0224243      -36.241249
       52.510000  5.6238590E-003     0.023933069       1.3063568       2.0882669      -37.443018
       53.400000  5.9912794E-003     0.023890309       1.3229826       2.1568317      -38.660836
       54.290000  6.4033055E-003     0.023896848       1.3393473       2.2283262      -39.894466
       55.180000  6.8569707E-003     0.023952050       1.3554488       2.3029790      -41.143674
       56.070000  7.3493862E-003     0.024055148       1.3712849       2.3810427      -42.408220
       56.960000  7.8777554E-003     0.024205241       1.3868534       2.4627969      -43.687870
       57.850000  8.4393846E-003     0.024401300       1.4021526       2.5485521      -44.982385
       58.740000  9.0316929E-003     0.024642164       1.4171806       2.6386538      -46.291530
       59.630000  9.6522186E-003     0.024926544       1.4319358       2.7334880      -47.615070
       60.520000     0.010298625     0.025253027       1.4464167       2.8334874      -48.952772
       61.410000     0.010968700     0.025620067       1.4606221       2.9391379      -50.304404
       62.300000     0.011660360     0.026025995       1.4745506       3.0509882      -51.669738
       63.190000     0.012371647     0.026469016       1.4882012       3.1696594      -53.048546
       64.080000     0.013100723     0.026947206       1.5015729       3.2958579      -54.440605
       64.970000     0.013845865     0.027458515       1.5146650       3.4303905      -55.845698
       65.860000     0.014605459     0.028000768       1.5274767       3.5741826      -57.263607
       66.750000     0.015377990     0.028571660       1.5400075       3.7283012      -58.694123
       67.640000     0.016162031     0.029168757       1.5522570       3.8939831      -60.137039
       68.530000     0.016956231     0.029789499       1.5642248       4.0726701      -61.592155
       69.420000     0.017759304     0.030431191       1.5759108       4.2660530      -63.059277
       70.310000     0.018570013     0.031091009       1.5873149       4.4761282      -64.538216
       71.200000     0.019387156     0.031765993       1.5984371       4.7052701      -66.028791
       72.090000     0.020209549     0.032453049       1.6092776       4.9563247      -67.530827
       72.980000     0.021036013     0.033148948       1.6198366       5.2327332      -69.044157
       73.870000     0.021865355     0.033850317       1.6301145       5.5386960      -70.568623
       74.760000     0.022696352     0.034553648       1.6401117       5.8793947      -72.104072
       75.650000     0.023527734     0.035255285       1.6498287       6.2612958      -73.650363
       76.540000     0.024358169     0.035951431       1.6592660       6.6925761      -75.207364
       77.430000     0.025186244     0.036638140       1.6684244       7.1837280      -76.774950
       78.320000     0.026010452     0.037311320       1.6773045       7.7484415      -78.353008
       79.210000     0.026829172     0.037966726       1.6859071       8.4049233      -79.941433
       80.100000     0.027640657     0.038599963       1.6942330       9.1779265      -81.540133
       80.990000     0.028443019     0.039206483       1.7022830       10.101985      -83.149024
       81.880000     0.029234212     0.039781583       1.7100579       11.226771      -84.768034
       82.770000     0.030012025     0.040320405       1.7175586       12.626417      -86.397103
       83.660000     0.030774061     0.040817939       1.7247859       14.416681      -88.036179
       84.550000     0.031517733     0.041269016       1.7317406       16.788932      -89.685225
       85.440000     0.032240251     0.041668317       1.7384235       20.083945      -91.344213
       86.330000     0.032938610     0.042010369       1.7448352       24.973050      -93.013127
       87.220000     0.033609585     0.042289549       1.7509764       32.987270      -94.691963
       88.110000     0.034249721     0.042500087       1.7568477       48.541456      -96.380727
       89.000000     0.034855329     0.042636074       1.7624496       91.767324      -98.079437

Table series: Data for wavelength : 0.587562 µm.
   Y Angle (deg)       Tan Shift       Sag Shift     Real Height     Ref. Height      Distortion
  --------------  --------------  --------------  --------------  --------------  --------------
      0.00000000     0.075322878     0.075322878      0.00000000      0.00000000      0.00000000
      0.89000000     0.075255614     0.075289690     0.025345325     0.025348150    -0.011145101
       1.7800000     0.075048045     0.075190238     0.050685932     0.050708538    -0.044579813
       2.6700000     0.074701321     0.075024858     0.076017100     0.076093424     -0.10030231
       3.5600000     0.074217360     0.074794108      0.10133411      0.10151512     -0.17830951
       4.4500000     0.073598831     0.074498764      0.12663222      0.12698600     -0.27859707
       5.3400000     0.072849135     0.074139822      0.15190669      0.15251854     -0.40115925
       6.2300000     0.071972381     0.073718485      0.17715279      0.17812533     -0.54598890
       7.1200000     0.070973347     0.073236167      0.20236574      0.20381913     -0.71307730
       8.0100000     0.069857454     0.072694480      0.22754077      0.22961283     -0.90241409
       8.9000000     0.068630714     0.072095230      0.25267310      0.25551955      -1.1139871
       9.7900000     0.067299694     0.071440408      0.27775791      0.28155263      -1.3477823
       10.680000     0.065871460     0.070732184      0.30279039      0.30772564      -1.6037834
       11.570000     0.064353531     0.069972893      0.32776569      0.33405246      -1.8819721
       12.460000     0.062753816     0.069165030      0.35267895      0.36054727      -2.1823273
       13.350000     0.061080566     0.068311236      0.37752530      0.38722460      -2.5048255
       14.240000     0.059342307     0.067414290      0.40229984      0.41409935      -2.8494404
       15.130000     0.057547787     0.066477094      0.42699765      0.44118685      -3.2161424
       16.020000     0.055705910     0.065502665      0.45161380      0.46850285      -3.6048988
       16.910000     0.053825678     0.064494119      0.47614333      0.49606363      -4.0156735
       17.800000     0.051916131     0.063454662      0.50058129      0.52388597      -4.4484264
       18.690000     0.049986287     0.062387573      0.52492267      0.55198723      -4.9031136
       19.580000     0.048045087     0.061296198      0.54916249      0.58038541      -5.3796873
       20.470000     0.046101335     0.060183929      0.57329573      0.60909916      -5.8780950
       21.360000     0.044163649     0.059054197      0.59731739      0.63814787      -6.3982798
       22.250000     0.042240410     0.057910459      0.62122242      0.66755171      -6.9401799
       23.140000     0.040339713     0.056756182      0.64500581      0.69733169      -7.5037286
       24.030000     0.038469323     0.055594834      0.66866252      0.72750972      -8.0888542
       24.920000     0.036636640     0.054429867      0.69218752      0.75810871      -8.6954793
       25.810000     0.034848657     0.053264713      0.71557580      0.78915261      -9.3235212
       26.700000     0.033111929     0.052102766      0.73882233      0.82066651      -9.9728916
       27.590000     0.031432549     0.050947372      0.76192212      0.85267674      -10.643496
       28.480000     0.029816124     0.049801821      0.78487018      0.88521092      -11.335235
       29.370000     0.028267752     0.048669336      0.80766157      0.91829815      -12.048002
       30.260000     0.026792014     0.047553060      0.83029133      0.95196901      -12.781684
       31.150000     0.025392958     0.046456051      0.85275458      0.98625578      -13.536164
       32.040000     0.024074101     0.045381272      0.87504644       1.0211925      -14.311317
       32.930000     0.022838421     0.044331585      0.89716209       1.0568153      -15.107011
       33.820000     0.021688365     0.043309738      0.91909676       1.0931622      -15.923109
       34.710000     0.020625852     0.042318366      0.94084570       1.1302735      -16.759469
       35.600000     0.019652289     0.041359979      0.96240425       1.1681923      -17.615939
       36.490000     0.018768581     0.040436960      0.98376781       1.2069640      -18.492364
       37.380000     0.017975153     0.039551559       1.0049318       1.2466371      -19.388583
       38.270000     0.017271965     0.038705887       1.0258918       1.2872632      -20.304426
       39.160000     0.016658541     0.037901917       1.0466433       1.3288974      -21.239721
       40.050000     0.016133995     0.037141475       1.0671821       1.3715987      -22.194286
       40.940000     0.015697055     0.036426244       1.0875040       1.4154299      -23.167938
       41.830000     0.015346094     0.035757755       1.1076047       1.4604585      -24.160483
       42.720000     0.015079167     0.035137393       1.1274802       1.5067570      -25.171728
       43.610000     0.014894034     0.034566390       1.1471267       1.5544031      -26.201470
       44.500000     0.014788202     0.034045826       1.1665401       1.6034806      -27.249503
       45.390000     0.014758951     0.033576631       1.1857169       1.6540798      -28.315617
       46.280000     0.014803374     0.033159584       1.2046533       1.7062980      -29.399597
       47.170000     0.014918407     0.032795312       1.2233459       1.7602409      -30.501223
       48.060000     0.015100859     0.032484292       1.2417912       1.8160225      -31.620274
       48.950000     0.015347451     0.032226853       1.2599861       1.8737669      -32.756522
       49.840000     0.015654840     0.032023175       1.2779272       1.9336090      -33.909739
       50.730000     0.016019652     0.031873293       1.2956118       1.9956957      -35.079692
       51.620000     0.016438506     0.031777096       1.3130367       2.0601873      -36.266147
       52.510000     0.016908047     0.031734330       1.3301994       2.1272594      -37.468868
       53.400000     0.017424959     0.031744601       1.3470971       2.1971044      -38.687616
       54.290000     0.017985996     0.031807371       1.3637274       2.2699338      -39.922151
       55.180000     0.018587997     0.031921969       1.3800880       2.3459806      -41.172232
       56.070000     0.019227902     0.032087582       1.3961766       2.4255019      -42.437619
       56.960000     0.019902768     0.032303264       1.4119913       2.5087826      -43.718070
       57.850000     0.020609780     0.032567934       1.4275300       2.5961390      -45.013344
       58.740000     0.021346260     0.032880380       1.4427911       2.6879231      -46.323201
       59.630000     0.022109674     0.033239255       1.4577729       2.7845281      -47.647401
       60.520000     0.022897636     0.033643082       1.4724739       2.8863947      -48.985706
       61.410000     0.023707909     0.034090254       1.4868927       2.9940179      -50.337881
       62.300000     0.024538403     0.034579033       1.5010283       3.1079567      -51.703692
       63.190000     0.025387175     0.035107550       1.5148796       3.2288437      -53.082909
       64.080000     0.026252422     0.035673807       1.5284456       3.3573987      -54.475304
       64.970000     0.027132474     0.036275675       1.5417255       3.4944433      -55.880653
       65.860000     0.028025782     0.036910894       1.5547189       3.6409202      -57.298738
       66.750000     0.028930914     0.037577071       1.5674251       3.7979166      -58.729343
       67.640000     0.029846533     0.038271681       1.5798439       3.9666922      -60.172260
       68.530000     0.030771393     0.038992063       1.5919749       4.1487156      -61.627283
       69.420000     0.031704317     0.039735421       1.6038182       4.3457094      -63.094214
       70.310000     0.032644182     0.040498822       1.6153737       4.5597071      -64.572863
       71.200000     0.033589905     0.041279193       1.6266416       4.7931276      -66.063045
       72.090000     0.034540422     0.042073318       1.6376221       5.0488699      -67.564581
       72.980000     0.035494673     0.042877839       1.6483157       5.3304396      -69.077303
       73.870000     0.036451582     0.043689251       1.6587228       5.6421154      -70.601048
       74.760000     0.037410035     0.044503900       1.6688439       5.9891756      -72.135665
       75.650000     0.038368870     0.045317981       1.6786799       6.3782076      -73.681010
       76.540000     0.039326847     0.046127537       1.6882313       6.8175409      -75.236947
       77.430000     0.040282641     0.046928452       1.6974990       7.3178637      -76.803353
       78.320000     0.041234817     0.047716455       1.7064840       7.8931216      -78.380113
       79.210000     0.042181814     0.048487111       1.7151871       8.5618613      -79.967123
       80.100000     0.043121930     0.049235825       1.7236094       9.3492981      -81.564291
       80.990000     0.044053303     0.049957835       1.7317519       10.290610      -83.171534
       81.880000     0.044973900     0.050648213       1.7396156       11.436399      -84.788782
       82.770000     0.045881499     0.051301864       1.7472017       12.862180      -86.415975
       83.660000     0.046773675     0.051913523       1.7545111       14.685871      -88.053068
       84.550000     0.047647792     0.052477757       1.7615450       17.102418      -89.700024
       85.440000     0.048500987     0.052988963       1.7683043       20.458955      -91.356820
