Results for:	
File:	C:\Users\User\OneDrive - Massachusetts Institute of Technology\Documents\MIT\Grad School\Classes\2.156\Lens Project\Prime Lenses\US08223439-1.zmx
Title:	
Date:	11/7/2025 5:49:57 PM

0 message(s) in output.
3 series table(s) in output.

Table series: Data for wavelength : 0.486133 µm.
   Y Angle (deg)       Tan Shift       Sag Shift     Real Height     Ref. Height      Distortion
  --------------  --------------  --------------  --------------  --------------  --------------
      0.00000000     0.017105519     0.017105519      0.00000000      0.00000000      0.00000000
      0.85000000     0.017060859     0.017073607      0.22980428      0.22982298 -8.1331152E-003
       1.7000000     0.016931991     0.016977927      0.45959758      0.45974715    -0.032533343
       2.5500000     0.016719158     0.016818648      0.68936889      0.68987390    -0.073202905
       3.4000000     0.016422765     0.016596051      0.91910723      0.92030496     -0.13014557
       4.2500000     0.016043381     0.016310526       1.1488016       1.1511426     -0.20336663
       5.1000000     0.015581737     0.015962578       1.3784409       1.3824898     -0.29287288
       5.9500000     0.015038729     0.015552821       1.6080141       1.6144505     -0.39867263
       6.8000000     0.014415419     0.015081979       1.8375103       1.8471297     -0.52077570
       7.6500000     0.013713037     0.014550886       2.0669182       2.0806336     -0.65919344
       8.5000000     0.012932983     0.013960483       2.2962267       2.3150700     -0.81393872
       9.3500000     0.012076828     0.013311820       2.5254247       2.5505483     -0.98502593
       10.200000     0.011146320     0.012606053       2.7545010       2.7871799      -1.1724710
       11.050000     0.010143383     0.011844443       2.9834444       3.0250783      -1.3762913
       11.900000  9.0701221E-003     0.011028353       3.2122436       3.2643592      -1.5965060
       12.750000  7.9288269E-003     0.010159250       3.4408871       3.5051411      -1.8331354
       13.600000  6.7219753E-003  9.2387013E-003       3.6693637       3.7475451      -2.0862018
       14.450000  5.4522371E-003  8.2683720E-003       3.8976619       3.9916954      -2.3557286
       15.300000  4.1224786E-003  7.2500248E-003       4.1257702       4.2377198      -2.6417412
       16.150000  2.7357673E-003  6.1855173E-003       4.3536770       4.4857495      -2.9442663
       17.000000  1.2953765E-003  5.0767998E-003       4.5813707       4.7359195      -3.2633321
       17.850000 -1.9520895E-004  3.9259131E-003       4.8088396       4.9883694      -3.5989687
       18.700000 -1.7322876E-003  2.7349868E-003       5.0360718       5.2432432      -3.9512074
       19.550000 -3.3119354E-003  1.5062363E-003       5.2630555       5.5006898      -4.3200815
       20.400000 -4.9299993E-003  2.4196004E-004       5.4897787       5.7608634      -4.7056255
       21.250000 -6.5820915E-003 -1.0554624E-003       5.7162294       6.0239240      -5.1078758
       22.100000 -8.2635822E-003 -2.3835738E-003       5.9423954       6.2900376      -5.5268703
       22.950000 -9.9695924E-003 -3.7398415E-003       6.1682645       6.5593771      -5.9626485
       23.800000    -0.011694987 -5.1216608E-003       6.3938244       6.8321222      -6.4152518
       24.650000    -0.013434369 -6.5263580E-003       6.6190625       7.1084603      -6.8847228
       25.500000    -0.015182066 -7.9511935E-003       6.8439664       7.3885870      -7.3711062
       26.350000    -0.016932130 -9.3933649E-003       7.0685233       7.6727066      -7.8744482
       27.200000    -0.018678323    -0.010850011       7.2927204       7.9610329      -8.3947965
       28.050000    -0.020414112    -0.012318213       7.5165449       8.2537900      -8.9322008
       28.900000    -0.022132656    -0.013795003       7.7399836       8.5512125      -9.4867124
       29.750000    -0.023826804    -0.015277361       7.9630234       8.8535472      -10.058384
       30.600000    -0.025489081    -0.016762225       8.1856509       9.1610531      -10.647271
       31.450000    -0.027111677    -0.018246490       8.4078527       9.4740030      -11.253430
       32.300000    -0.028686444    -0.019727014       8.6296152       9.7926843      -11.876918
       33.150000    -0.030204884    -0.021200620       8.8509246       10.117400      -12.517796
       34.000000    -0.031658138    -0.022664104       9.0717670       10.448471      -13.176126
       34.850000    -0.033036980    -0.024114235       9.2921283       10.786234      -13.851971
       35.700000    -0.034331807    -0.025547761       9.5119943       11.131050      -14.545397
       36.550000    -0.035532631    -0.026961410       9.7313505       11.483296      -15.256472
       37.400000    -0.036629071    -0.028351897       9.9501824       11.843378      -15.985263
       38.250000    -0.037610346    -0.029715929       10.168475       12.211721      -16.731843
       39.100000    -0.038465268    -0.031050205       10.386214       12.588784      -17.496285
       39.950000    -0.039182238    -0.032351421       10.603384       12.975049      -18.278663
       40.800000    -0.039749237    -0.033616275       10.819969       13.371036      -19.079054
       41.650000    -0.040153830    -0.034841470       11.035955       13.777297      -19.897536
       42.500000    -0.040383157    -0.036023716       11.251324       14.194423      -20.734192
       43.350000    -0.040423937    -0.037159733       11.466063       14.623047      -21.589102
       44.200000    -0.040262471    -0.038246256       11.680153       15.063848      -22.462353
       45.050000    -0.039884646    -0.039280036       11.893580       15.517554      -23.354031
       45.900000    -0.039275942    -0.040257840       12.106326       15.984951      -24.264224
       46.750000    -0.038421448    -0.041176455       12.318376       16.466881      -25.193024
       47.600000    -0.037305872    -0.042032688       12.529711       16.964256      -26.140523
       48.450000    -0.035913568    -0.042823365       12.740315       17.478061      -27.106817
       49.300000    -0.034228558    -0.043545329       12.950171       18.009362      -28.092002
       50.150000    -0.032234569    -0.044195444       13.159261       18.559312      -29.096179
       51.000000    -0.029915072    -0.044770583       13.367568       19.129168      -30.119449
       51.850000    -0.027253332    -0.045267631       13.575073       19.720295      -31.161916
       52.700000    -0.024232470    -0.045683472       13.781758       20.334181      -32.223686
       53.550000    -0.020835535    -0.046014986       13.987606       20.972454      -33.304866
       54.400000    -0.017045589    -0.046259039       14.192597       21.636894      -34.405569
       55.250000    -0.012845812    -0.046412462       14.396714       22.329456      -35.525907
       56.100000 -8.2196236E-003    -0.046472043       14.599937       23.052288      -36.665996
       56.950000 -3.1508265E-003    -0.046434502       14.802248       23.807760      -37.825953
       57.800000  2.3762233E-003    -0.046296466       15.003627       24.598488      -39.005899
       58.650000  8.3764164E-003    -0.046054445       15.204055       25.427375      -40.205957
       59.500000     0.014863654    -0.045704785       15.403514       26.297642      -41.426252
       60.350000     0.021850570    -0.045243636       15.601985       27.212881      -42.666912
       61.200000     0.029348207    -0.044666895       15.799447       28.177105      -43.928068
       62.050000     0.037365629    -0.043970144       15.995883       29.194817      -45.209854
       62.900000     0.045909471    -0.043148577       16.191273       30.271081      -46.512406
       63.750000     0.054983399    -0.042196908       16.385598       31.411616      -47.835864
       64.600000     0.064587485    -0.041109288       16.578840       32.622906      -49.180370
       65.450000     0.074717449    -0.039879145       16.770981       33.912332      -50.546070
       66.300000     0.085363772    -0.038499060       16.962003       35.288332      -51.933112
       67.150000     0.096510630    -0.036960580       17.151889       36.760598      -53.341649
       68.000000      0.10813462    -0.035254008       17.340622       38.340320      -54.771837
       68.850000      0.12020324    -0.033368145       17.528188       40.040483      -56.223836
       69.700000      0.13267302    -0.031289980       17.714570       41.876249      -57.697810
       70.550000      0.14548730    -0.029004320       17.899757       43.865425      -59.193928
       71.400000      0.15857348    -0.026493336       18.083736       46.029074      -60.712363
       72.250000      0.17183970    -0.023736017       18.266497       48.392292      -62.253292
       73.100000      0.18517060    -0.020707491       18.448034       50.985222      -63.816900
       73.950000      0.19842223    -0.017378209       18.628340       53.844390      -65.403378
       74.800000      0.21141551    -0.013712912       18.807415       57.014492      -67.012921
       75.650000      0.22392794 -9.6693686E-003       18.985262       60.550812      -68.645736
       76.500000      0.23568310 -5.1967751E-003       19.161886       64.522554      -70.302034
       77.350000      0.24633685 -2.3373935E-004       19.337303       69.017522      -71.982039
       78.200000      0.25545945  5.2942942E-003       19.511531       74.148816      -73.685985
       79.050000      0.26251158     0.011478367       19.684600       80.064653      -75.414119
       79.900000      0.26681214     0.018430347       19.856551       86.963141      -77.166705
       80.750000      0.26749386     0.026288666       20.027437       95.115205      -78.944022
       81.600000      0.26344141     0.035226040       20.197330       104.90143      -80.746372
       82.450000      0.25320280     0.045460016       20.366324       116.87377      -82.574084
       83.300000      0.23485971     0.057267684       20.534542       131.86430      -84.427520
       84.150000      0.20583234     0.071006755       20.702144       151.18867      -86.307079
       85.000000      0.16257610     0.087146341       20.869346       177.05717      -88.213216

Table series: Data for wavelength : 0.587562 µm.
   Y Angle (deg)       Tan Shift       Sag Shift     Real Height     Ref. Height      Distortion
  --------------  --------------  --------------  --------------  --------------  --------------
      0.00000000     0.055138749     0.055138749      0.00000000      0.00000000      0.00000000
      0.85000000     0.055072087     0.055099935      0.22978944      0.22980813 -8.1349995E-003
       1.7000000     0.054878907     0.054983552      0.45956787      0.45971746    -0.032540748
       2.5500000     0.054559464     0.054789774      0.68932426      0.68982935    -0.073219490
       3.4000000     0.054114182     0.054518891      0.91904760      0.92024553     -0.13017496
       4.2500000     0.053543656     0.054171307       1.1487269       1.1510683     -0.20341241
       5.1000000     0.052848651     0.053747544       1.3783510       1.3824005     -0.29293856
       5.9500000     0.052030104     0.053248236       1.6079089       1.6143463     -0.39876166
       6.8000000     0.051089127     0.052674131       1.8373895       1.8470104     -0.52089144
       7.6500000     0.050027008     0.052026092       2.0667816       2.0804992     -0.65933916
       8.5000000     0.048845212     0.051305094       2.2960743       2.3149204     -0.81411756
       9.3500000     0.047545386     0.050512222       2.5252562       2.5503836     -0.98524093
       10.200000     0.046129362     0.049648671       2.7543161       2.7869999      -1.1727250
       11.050000     0.044599157     0.048715747       2.9832428       3.0248830      -1.3765872
       11.900000     0.042956981     0.047714862       3.2120250       3.2641484      -1.5968462
       12.750000     0.041205237     0.046647536       3.4406513       3.5049147      -1.8335225
       13.600000     0.039346529     0.045515391       3.6691104       3.7473031      -2.0866379
       14.450000     0.037383663     0.044320155       3.8973908       3.9914377      -2.3562158
       15.300000     0.035319657     0.043063655       4.1254809       4.2374462      -2.6422814
       16.150000     0.033157739     0.041747819       4.3533692       4.4854598      -2.9448610
       17.000000     0.030901360     0.040374671       4.5810441       4.7356137      -3.2639829
       17.850000     0.028554195     0.038946332       4.8084937       4.9880473      -3.5996766
       18.700000     0.026120153     0.037465014       5.0357064       5.2429046      -3.9519735
       19.550000     0.023603380     0.035933023       5.2626702       5.5003345      -4.3209064
       20.400000     0.021008269     0.034352750       5.4893732       5.7604913      -4.7065097
       21.250000     0.018339468     0.032726674       5.7158034       6.0235349      -5.1088195
       22.100000     0.015601885     0.031057356       5.9419486       6.2896314      -5.5278734
       22.950000     0.012800696     0.029347440       6.1677965       6.5589536      -5.9637107
       23.800000  9.9413584E-003     0.027599644       6.3933349       6.8316810      -6.4163724
       24.650000  7.0296143E-003     0.025816766       6.6185513       7.1080013      -6.8859011
       25.500000  4.0715030E-003     0.024001671       6.8434332       7.3881098      -7.3723408
       26.350000  1.0733691E-003     0.022157296       7.0679679       7.6722111      -7.8757377
       27.200000 -1.9581268E-003     0.020286642       7.2921426       7.9605188      -8.3961392
       28.050000 -5.0159984E-003     0.018392775       7.5159444       8.2532569      -8.9335946
       28.900000 -8.0929231E-003     0.016478818       7.7393604       8.5506603      -9.4881550
       29.750000    -0.011181231     0.014547951       7.9623773       8.8529754      -10.059873
       30.600000    -0.014272894     0.012603407       8.1849819       9.1604615      -10.648803
       31.450000    -0.017359516     0.010648467       8.4071608       9.4733912      -11.255002
       32.300000    -0.020432319  8.6864588E-003       8.6289004       9.7920519      -11.878527
       33.150000    -0.023482132  6.7207519E-003       8.8501869       10.116747      -12.519438
       34.000000    -0.026499384  4.7547551E-003       9.0710066       10.447796      -13.177797
       34.850000    -0.029474084  2.7919111E-003       9.2913454       10.785538      -13.853666
       35.700000    -0.032395819  8.3569547E-004       9.5111891       11.130331      -14.547113
       36.550000    -0.035253734 -1.1103881E-003       9.7305234       11.482555      -15.258202
       37.400000    -0.038036529 -3.0428121E-003       9.9493337       11.842613      -15.987004
       38.250000    -0.040732442 -4.9580268E-003       10.167605       12.210933      -16.733589
       39.100000    -0.043329242 -6.8524644E-003       10.385324       12.587971      -17.498030
       39.950000    -0.045814220 -8.7225423E-003       10.602473       12.974211      -18.280402
       40.800000    -0.048174176    -0.010564666       10.819039       13.370173      -19.080781
       41.650000    -0.050395420    -0.012375231       11.035006       13.776408      -19.899246
       42.500000    -0.052463757    -0.014150627       11.250358       14.193507      -20.735877
       43.350000    -0.054364488    -0.015887238       11.465080       14.622103      -21.590757
       44.200000    -0.056082406    -0.017581447       11.679155       15.062875      -22.463971
       45.050000    -0.057601796    -0.019229635       11.892568       15.516552      -23.355606
       45.900000    -0.058906434    -0.020828183       12.105301       15.983918      -24.265749
       46.750000    -0.059979602    -0.022373472       12.317338       16.465817      -25.194492
       47.600000    -0.060804085    -0.023861882       12.528664       16.963161      -26.141928
       48.450000    -0.061362197    -0.025289794       12.739259       17.476933      -27.108152
       49.300000    -0.061635793    -0.026653584       12.949108       18.008199      -28.093261
       50.150000    -0.061606296    -0.027949623       13.158193       18.558114      -29.097355
       51.000000    -0.061254734    -0.029174266       13.366497       19.127933      -30.120536
       51.850000    -0.060561775    -0.030323857       13.574001       19.719021      -31.162907
       52.700000    -0.059507783    -0.031394712       13.780688       20.332868      -32.224574
       53.550000    -0.058072878    -0.032383112       13.986539       20.971099      -33.305647
       54.400000    -0.056237014    -0.033285290       14.191537       21.635497      -34.406236
       55.250000    -0.053980068    -0.034097417       14.395662       22.328014      -35.526454
       56.100000    -0.051281953    -0.034815583       14.598897       23.050799      -36.666417
       56.950000    -0.048122747    -0.035435774       14.801222       23.806222      -37.826244
       57.800000    -0.044482849    -0.035953843       15.002619       24.596900      -39.006055
       58.650000    -0.040343167    -0.036365482       15.203069       25.425733      -40.205974
       59.500000    -0.035685335    -0.036666178       15.402553       26.295943      -41.426125
       60.350000    -0.030491976    -0.036851170       15.601052       27.211123      -42.666639
       61.200000    -0.024747009    -0.036915393       15.798546       28.175286      -43.927645
       62.050000    -0.018436014    -0.036853410       15.995018       29.192932      -45.209279
       62.900000    -0.011546667    -0.036659336       16.190448       30.269126      -46.511677
       63.750000 -4.0692523E-003    -0.036326745       16.384818       31.409587      -47.834978
       64.600000  4.0027296E-003    -0.035848550       16.578110       32.620799      -49.179328
       65.450000     0.012671832    -0.035216901       16.770305       33.910142      -50.544870
       66.300000     0.021935796    -0.034422985       16.961386       35.286053      -51.931756
       67.150000     0.031786518    -0.033456867       17.151337       36.758224      -53.340138
       68.000000     0.042208796    -0.032307256       17.340141       38.337844      -54.770173
       68.850000     0.053178833    -0.030961234       17.527782       40.037898      -56.222021
       69.700000     0.064662415    -0.029403936       17.714248       41.873544      -57.695848
       70.550000     0.076612691    -0.027618151       17.899524       43.862592      -59.191823
       71.400000     0.088967463    -0.025583846       18.083600       46.026101      -60.710119
       72.250000      0.10164584    -0.023277590       18.266467       48.389167      -62.250916
       73.100000      0.11454408    -0.020671836       18.448117       50.981929      -63.814400
       73.950000      0.12753042    -0.017734051       18.628547       53.840913      -65.400760
       74.800000      0.14043849    -0.014425627       18.807755       57.010811      -67.010195
       75.650000      0.15305899    -0.010700529       18.985746       60.546902      -68.642910
       76.500000      0.16512897 -6.5035942E-003       19.162528       64.518387      -70.299121
       77.350000      0.17631785 -1.7683710E-003       19.338116       69.013065      -71.979050
       78.200000      0.18620901  3.5856441E-003       19.512533       74.144028      -73.682934
       79.050000      0.19427515  9.6565878E-003       19.685809       80.059483      -75.411021
       79.900000      0.19984492     0.016564925       19.857989       86.957525      -77.163577
       80.750000      0.20205673     0.024459689       20.029130       95.109062      -78.940882
       81.600000      0.19979367     0.033526916       20.199309       104.89465      -80.743242
